EEG 1,EEG 2,EEG 3,EEG 4,EEG 5,EEG 6,EEG 7,EEG 8,Accelerometer X,Accelerometer Y,Accelerometer Z,Gyroscope X,Gyroscope Y,Gyroscope Z,Battery Level,Counter,Validation Indicator,State
482512.40625,368196.46875,750000.0625,700739.5625,-331354.25,679411.375,312526.21875,750000.0625,-0.1787109375,0.923095703125,-0.232666015625,0.0,0.0,0.0,60.0,1.0,1.0,Rest
480738.03125,190694.71875,750000.0625,750000.0625,-354309.3125,750000.0625,393594.46875,398413.4375,-0.185791015625,0.938232421875,-0.24755859375,0.0,0.0,0.0,60.0,2.0,1.0,Rest
370850.6875,352148.71875,750000.0625,750000.0625,-261899.515625,750000.0625,265676.25,216298.828125,-0.185546875,0.94091796875,-0.25439453125,0.0,0.0,0.0,60.0,3.0,1.0,Rest
322503.0625,522362.96875,605757.625,750000.0625,-161520.515625,555593.875,126268.6796875,292131.6875,-0.18017578125,0.94287109375,-0.2548828125,0.0,0.0,0.0,60.0,4.0,1.0,Rest
429783.28125,602207.8125,750000.0625,688546.0625,-44084.70703125,487683.0,220171.671875,305984.84375,-0.1748046875,0.9443359375,-0.257080078125,0.0,0.0,0.0,60.0,5.0,1.0,Rest
538449.8125,660013.875,750000.0625,693750.875,113266.9375,611791.25,404480.75,322863.375,-0.170654296875,0.94287109375,-0.261474609375,0.0,0.0,0.0,60.0,6.0,1.0,Rest
552306.5625,749672.8125,750000.0625,750000.0625,264487.84375,699849.6875,399636.875,296987.28125,-0.16552734375,0.94189453125,-0.260986328125,-3.570556402206421,1.7700194120407104,2.990722417831421,60.0,7.0,1.0,Rest
569406.875,750000.0625,750000.0625,750000.0625,342975.28125,750000.0625,505629.84375,278078.4375,-0.16552734375,0.941650390625,-0.261962890625,-0.5798339247703552,8.331297874450684,10.192870140075684,60.0,8.0,1.0,Rest
614304.3125,750000.0625,750000.0625,750000.0625,425495.4375,750000.0625,731466.3125,750000.0625,-0.1640625,0.94140625,-0.2666015625,0.2136230319738388,10.559081077575684,12.603758811950684,60.0,9.0,1.0,Rest
613432.9375,750000.0625,750000.0625,750000.0625,659093.625,675919.4375,750000.0625,750000.0625,-0.16259765625,0.94189453125,-0.267578125,0.6103515028953552,11.383055686950684,13.763426780700684,60.0,10.0,1.0,Rest
644575.25,750000.0625,750000.0625,750000.0625,663424.1875,635527.1875,750000.0625,750000.0625,-0.15966796875,0.9404296875,-0.265869140625,0.6408690810203552,11.657713890075684,14.587401390075684,60.0,11.0,1.0,Rest
750000.0625,750000.0625,750000.0625,750000.0625,750000.0625,622289.5,750000.0625,750000.0625,-0.15771484375,0.939697265625,-0.266845703125,0.5798339247703552,11.840819358825684,15.106200218200684,60.0,12.0,1.0,Rest
750000.0625,750000.0625,750000.0625,750000.0625,750000.0625,700576.8125,750000.0625,750000.0625,-0.15185546875,0.9375,-0.264404296875,0.6408690810203552,11.993407249450684,15.624999046325684,60.0,13.0,1.0,Rest
750000.0625,750000.0625,750000.0625,750000.0625,750000.0625,750000.0625,750000.0625,750000.0625,-0.149169921875,0.935791015625,-0.2646484375,0.7019042372703552,12.084959983825684,16.052244186401367,60.0,14.0,1.0,Rest
750000.0625,750000.0625,750000.0625,750000.0625,750000.0625,750000.0625,750000.0625,750000.0625,-0.14697265625,0.93310546875,-0.26806640625,0.4882812201976776,12.115477561950684,16.326902389526367,60.0,15.0,1.0,Rest
750000.0625,750000.0625,750000.0625,750000.0625,750000.0625,750000.0625,750000.0625,750000.0625,-0.142822265625,0.931884765625,-0.266845703125,0.5187987685203552,12.115477561950684,16.632078170776367,60.0,16.0,1.0,Rest
750000.0625,750000.0625,750000.0625,750000.0625,750000.0625,750000.0625,750000.0625,750000.0625,-0.137451171875,0.928955078125,-0.267822265625,0.6408690810203552,12.207030296325684,17.028806686401367,60.0,17.0,1.0,Rest
750000.0625,750000.0625,750000.0625,750000.0625,750000.0625,750000.0625,750000.0625,731117.9375,-0.135498046875,0.929931640625,-0.2685546875,0.7324218153953552,12.298583030700684,17.242429733276367,60.0,18.0,1.0,Rest
750000.0625,750000.0625,750000.0625,750000.0625,750000.0625,750000.0625,750000.0625,629418.4375,-0.133544921875,0.928466796875,-0.2724609375,0.8239745497703552,12.359618186950684,17.425535202026367,60.0,19.0,1.0,Rest
750000.0625,750000.0625,750000.0625,750000.0625,750000.0625,750000.0625,750000.0625,554603.9375,-0.132080078125,0.92626953125,-0.274169921875,0.9460448622703552,12.420653343200684,17.517087936401367,60.0,20.0,1.0,Rest
750000.0625,750000.0625,750000.0625,750000.0625,750000.0625,750000.0625,750000.0625,523354.0625,-0.13232421875,0.9267578125,-0.276611328125,1.1596678495407104,12.512206077575684,17.547605514526367,60.0,21.0,1.0,Rest
750000.0625,750000.0625,750000.0625,750000.0625,750000.0625,750000.0625,750000.0625,506107.28125,-0.1318359375,0.927001953125,-0.27392578125,1.3427733182907104,12.512206077575684,17.486570358276367,60.0,22.0,1.0,Rest
750000.0625,750000.0625,750000.0625,750000.0625,750000.0625,720600.0,750000.0625,490426.53125,-0.130859375,0.927978515625,-0.2763671875,1.5258787870407104,12.420653343200684,17.242429733276367,60.0,23.0,1.0,Rest
750000.0625,750000.0625,750000.0625,750000.0625,750000.0625,693221.0,750000.0625,476098.53125,-0.1279296875,0.928466796875,-0.275634765625,1.6479490995407104,12.481688499450684,17.181394577026367,60.0,24.0,1.0,Rest
750000.0625,750000.0625,750000.0625,750000.0625,750000.0625,668381.8125,750000.0625,462976.09375,-0.124755859375,0.92822265625,-0.280029296875,1.7700194120407104,12.420653343200684,16.937253952026367,60.0,25.0,1.0,Rest
750000.0625,750000.0625,750000.0625,750000.0625,750000.0625,645769.625,750000.0625,450953.34375,-0.1240234375,0.9306640625,-0.281005859375,1.9226073026657104,12.268065452575684,16.601560592651367,60.0,26.0,1.0,Rest
746674.8125,750000.0625,750000.0625,750000.0625,750000.0625,624839.375,750000.0625,439781.15625,-0.121826171875,0.931884765625,-0.2822265625,1.9226073026657104,12.115477561950684,16.510007858276367,60.0,27.0,1.0,Rest
721671.5,750000.0625,750000.0625,750000.0625,750000.0625,605353.0625,729291.25,429354.15625,-0.11767578125,0.931640625,-0.282958984375,1.9226073026657104,12.054442405700684,16.235349655151367,60.0,28.0,1.0,Rest
698541.9375,750000.0625,750000.0625,750000.0625,750000.0625,587339.5625,706971.5,419692.90625,-0.11376953125,0.931396484375,-0.2841796875,1.8920897245407104,11.840819358825684,15.808104515075684,60.0,29.0,1.0,Rest
677413.125,750000.0625,750000.0625,750000.0625,750000.0625,570822.375,686352.625,410781.53125,-0.109375,0.92919921875,-0.28466796875,1.8920897245407104,11.627196311950684,15.472411155700684,60.0,30.0,1.0,Rest
658057.125,750000.0625,750000.0625,750000.0625,750000.0625,555629.4375,667297.9375,402553.59375,-0.104248046875,0.9267578125,-0.287109375,1.9226073026657104,11.505125999450684,15.106200218200684,60.0,31.0,1.0,Rest
639915.0,750000.0625,750000.0625,750000.0625,750000.0625,541377.0,649521.3125,394819.625,-0.0986328125,0.926513671875,-0.291748046875,1.8920897245407104,11.444090843200684,14.739989280700684,60.0,32.0,1.0,Rest
622692.5625,750000.0625,750000.0625,750000.0625,750000.0625,527880.125,632812.3125,387495.9375,-0.09521484375,0.92578125,-0.2939453125,2.014159917831421,11.444090843200684,14.434813499450684,60.0,33.0,1.0,Rest
606547.625,746216.0,750000.0625,750000.0625,750000.0625,515223.75,617135.0625,380606.6875,-0.092041015625,0.92431640625,-0.29345703125,2.197265386581421,11.413573265075684,13.977049827575684,60.0,34.0,1.0,Rest
591747.375,728504.75,750000.0625,750000.0625,750000.0625,503557.125,602550.375,374237.875,-0.09033203125,0.926513671875,-0.29541015625,2.441406011581421,11.444090843200684,13.458250999450684,60.0,35.0,1.0,Rest
578037.25,712011.625,750000.0625,750000.0625,750000.0625,492686.21875,588915.1875,368286.84375,-0.08740234375,0.926513671875,-0.297607421875,2.563476324081421,11.474608421325684,13.031004905700684,60.0,36.0,1.0,Rest
564984.5625,696250.6875,750000.0625,750000.0625,750000.0625,482362.46875,576058.5,362632.5625,-0.080322265625,0.926513671875,-0.296630859375,2.746581792831421,11.444090843200684,12.634276390075684,60.0,37.0,1.0,Rest
552382.25,681023.375,750000.0625,750000.0625,750000.0625,472456.34375,563850.4375,357221.21875,-0.079833984375,0.928466796875,-0.294921875,2.868652105331421,11.657713890075684,12.176512718200684,60.0,38.0,1.0,Rest
540438.5,666581.5625,750000.0625,750000.0625,750000.0625,463085.53125,552302.9375,352103.375,-0.07763671875,0.927490234375,-0.2900390625,2.960204839706421,11.810301780700684,11.688231468200684,60.0,39.0,1.0,Rest
529440.6875,653202.3125,750000.0625,750000.0625,750000.0625,454405.53125,541479.1875,347349.78125,-0.0771484375,0.92724609375,-0.288330078125,3.051757574081421,11.993407249450684,11.230467796325684,60.0,40.0,1.0,Rest
519290.40625,640743.375,750000.0625,750000.0625,750000.0625,446326.28125,531327.4375,342912.0625,-0.079345703125,0.928955078125,-0.28759765625,3.112792730331421,12.054442405700684,10.833739280700684,60.0,41.0,1.0,Rest
509625.53125,628817.875,750000.0625,750000.0625,750000.0625,438622.875,521713.25,338695.71875,-0.080078125,0.928466796875,-0.287109375,3.051757574081421,12.176512718200684,10.375975608825684,60.0,42.0,1.0,Rest
500265.40625,617259.0,750000.0625,750000.0625,750000.0625,431192.53125,512546.09375,334643.71875,-0.08154296875,0.930908203125,-0.285888671875,2.899169683456421,12.207030296325684,9.979247093200684,60.0,43.0,1.0,Rest
491415.71875,606306.125,750000.0625,750000.0625,750000.0625,424181.21875,503871.5625,330822.28125,-0.0810546875,0.931640625,-0.28466796875,2.593993902206421,12.237547874450684,9.338377952575684,60.0,44.0,1.0,Rest
483289.25,596181.875,750000.0625,750000.0625,750000.0625,417689.84375,495716.375,327263.625,-0.08154296875,0.93359375,-0.2841796875,2.441406011581421,12.207030296325684,8.758543968200684,60.0,45.0,1.0,Rest
475789.90625,586767.5,750000.0625,750000.0625,750000.0625,411645.75,488053.125,323932.6875,-0.08056640625,0.93603515625,-0.2841796875,2.197265386581421,12.176512718200684,8.300780296325684,60.0,46.0,1.0,Rest
468560.625,577669.125,750000.0625,750000.0625,750000.0625,405822.3125,480746.78125,320728.875,-0.079833984375,0.93603515625,-0.287109375,1.8615721464157104,12.115477561950684,7.690429210662842,60.0,47.0,1.0,Rest
461441.875,568736.6875,750000.0625,750000.0625,750000.0625,400138.4375,473726.375,317625.90625,-0.082763671875,0.935546875,-0.288818359375,1.7700194120407104,12.084959983825684,7.141112804412842,60.0,48.0,1.0,Rest
454649.625,560209.5,750000.0625,750000.0625,750000.0625,394728.96875,467035.625,314678.6875,-0.083251953125,0.93603515625,-0.291015625,1.8615721464157104,12.176512718200684,6.744384288787842,60.0,49.0,1.0,Rest
448437.09375,552338.1875,750000.0625,750000.0625,750000.0625,389730.125,460736.96875,311940.0625,-0.086181640625,0.9375,-0.286865234375,1.8615721464157104,12.115477561950684,6.195067882537842,60.0,50.0,1.0,Rest
442707.6875,544995.25,750000.0625,750000.0625,750000.0625,385064.78125,454789.53125,309369.53125,-0.088623046875,0.939697265625,-0.28662109375,1.6479490995407104,11.962889671325684,5.645751476287842,60.0,51.0,1.0,Rest
437134.34375,537825.625,750000.0625,750000.0625,750000.0625,380534.96875,449082.6875,306884.46875,-0.091796875,0.941650390625,-0.285400390625,1.4038084745407104,11.779784202575684,5.187987804412842,60.0,52.0,1.0,Rest
431573.59375,530694.0,750000.0625,750000.0625,750000.0625,376071.0625,443562.53125,304454.65625,-0.092529296875,0.946533203125,-0.283447265625,1.1596678495407104,11.596678733825684,4.638671398162842,60.0,53.0,1.0,Rest
426236.4375,523848.65625,750000.0625,750000.0625,750000.0625,371793.65625,438270.53125,302134.71875,-0.093017578125,0.950439453125,-0.28515625,1.0070799589157104,11.535643577575684,4.119872570037842,60.0,54.0,1.0,Rest
421344.53125,517517.46875,750000.0625,750000.0625,750000.0625,367817.90625,433249.0625,299961.125,-0.09228515625,0.95263671875,-0.28515625,0.7324218153953552,11.322020530700684,3.723144292831421,60.0,55.0,1.0,Rest
416865.25,511649.25,750000.0625,750000.0625,750000.0625,364123.0,428518.8125,297940.625,-0.091552734375,0.95458984375,-0.28466796875,0.4272460639476776,11.169432640075684,3.448486089706421,60.0,56.0,1.0,Rest
412486.625,505899.03125,750000.0625,750000.0625,750000.0625,360525.96875,423976.65625,295990.84375,-0.089111328125,0.9521484375,-0.284423828125,0.2441406100988388,11.108397483825684,3.204345464706421,60.0,57.0,1.0,Rest
408049.1875,500106.34375,750000.0625,750000.0625,750000.0625,356924.46875,419538.15625,294055.28125,-0.08544921875,0.951416015625,-0.28369140625,-0.1220703050494194,10.894774436950684,2.990722417831421,60.0,58.0,1.0,Rest
403793.9375,494545.4375,750000.0625,750000.0625,750000.0625,353471.21875,415272.71875,292207.5,-0.08349609375,0.95263671875,-0.285888671875,-0.3662109076976776,10.650633811950684,2.899169683456421,60.0,59.0,1.0,Rest
399959.71875,489458.15625,750000.0625,750000.0625,750000.0625,350305.84375,411262.625,290511.8125,-0.084716796875,0.952392578125,-0.285888671875,-0.5187987685203552,10.528563499450684,2.746581792831421,60.0,60.0,1.0,Rest
396499.84375,484772.4375,750000.0625,750000.0625,750000.0625,347383.78125,407485.375,288935.75,-0.083740234375,0.953857421875,-0.286865234375,-0.6713866591453552,10.437010765075684,2.532958745956421,60.0,61.0,1.0,Rest
393105.78125,480149.28125,750000.0625,750000.0625,750000.0625,344525.59375,403839.34375,287394.90625,-0.086669921875,0.958251953125,-0.285888671875,-0.7629393935203552,10.467528343200684,2.502441167831421,60.0,62.0,1.0,Rest
389650.90625,475485.03125,750000.0625,750000.0625,750000.0625,341643.125,400284.28125,285876.59375,-0.08837890625,0.958740234375,-0.281494140625,-0.9155272841453552,10.375975608825684,2.288818120956421,60.0,63.0,1.0,Rest
386325.4375,471008.5,750000.0625,750000.0625,750000.0625,338894.40625,396859.4375,284426.59375,-0.091552734375,0.956787109375,-0.278076171875,-1.2207030057907104,10.375975608825684,2.014159917831421,60.0,64.0,1.0,Rest
383362.46875,466961.40625,750000.0625,750000.0625,750000.0625,336394.5,393631.59375,283097.1875,-0.0966796875,0.95751953125,-0.2763671875,-1.5869139432907104,10.131834983825684,1.8310545682907104,60.0,65.0,1.0,Rest
380686.25,463247.0,750000.0625,750000.0625,750000.0625,334077.875,390585.84375,281852.125,-0.10302734375,0.95556640625,-0.274169921875,-1.6784666776657104,9.948729515075684,1.6784666776657104,60.0,66.0,1.0,Rest
378018.53125,459551.96875,750000.0625,750000.0625,746743.0,331796.28125,387638.71875,280636.4375,-0.111572265625,0.95263671875,-0.2744140625,-1.8920897245407104,9.643553733825684,1.4038084745407104,60.0,67.0,1.0,Rest
375224.375,455735.46875,750000.0625,750000.0625,740576.6875,329460.78125,384726.1875,279408.96875,-0.1171875,0.9501953125,-0.27490234375,-2.166747808456421,9.307860374450684,1.0375975370407104,60.0,68.0,1.0,Rest
372490.59375,452015.40625,750000.0625,750000.0625,734535.6875,327185.125,381893.96875,278225.40625,-0.11962890625,0.946533203125,-0.2744140625,-2.349853277206421,9.033202171325684,0.8544921278953552,60.0,69.0,1.0,Rest
370066.21875,448658.09375,750000.0625,750000.0625,728803.9375,325116.15625,379225.78125,277147.15625,-0.12060546875,0.942626953125,-0.2734375,-2.441406011581421,8.666991233825684,0.5493163466453552,60.0,70.0,1.0,Rest
367892.125,445586.15625,750000.0625,750000.0625,723393.3125,323216.6875,376720.25,276151.53125,-0.1201171875,0.94091796875,-0.273681640625,-2.563476324081421,8.270262718200684,0.2746581733226776,60.0,71.0,1.0,Rest
365707.5625,442507.59375,750000.0625,750000.0625,718120.625,321331.28125,374294.5625,275166.53125,-0.117431640625,0.940673828125,-0.275634765625,-2.410888433456421,7.781981945037842,0.1831054538488388,60.0,72.0,1.0,Rest
363379.84375,439289.21875,750000.0625,750000.0625,712840.375,319368.09375,371883.96875,274160.15625,-0.1142578125,0.942626953125,-0.2802734375,-2.319335699081421,7.446288585662842,-0.03051757626235485,60.0,73.0,1.0,Rest
361084.21875,436185.71875,750000.0625,750000.0625,707636.75,317447.8125,369526.84375,273179.8125,-0.10986328125,0.939208984375,-0.28466796875,-2.166747808456421,7.141112804412842,-0.03051757626235485,60.0,74.0,1.0,Rest
359050.125,433458.28125,750000.0625,750000.0625,702696.3125,315708.40625,367297.03125,272284.84375,-0.107666015625,0.94091796875,-0.287353515625,-1.8615721464157104,6.896972179412842,-0.0915527269244194,60.0,75.0,1.0,Rest
357263.9375,430950.59375,750000.0625,750000.0625,698037.3125,314135.375,365210.1875,271482.0625,-0.102294921875,0.940673828125,-0.284912109375,-1.7395018339157104,6.652831554412842,-0.1831054538488388,60.0,76.0,1.0,Rest
355423.6875,428330.875,750000.0625,750000.0625,693443.3125,312544.0,363152.28125,270668.71875,-0.09619140625,0.942138671875,-0.283935546875,-1.5258787870407104,6.622313976287842,-0.0915527269244194,60.0,77.0,1.0,Rest
353391.28125,425473.34375,750000.0625,750000.0625,688782.25,310854.40625,361067.25,269815.59375,-0.09423828125,0.940185546875,-0.281982421875,-1.2817381620407104,6.622313976287842,-0.0915527269244194,60.0,78.0,1.0,Rest
351387.59375,422670.0625,750000.0625,750000.0625,684177.125,309202.78125,359019.71875,268985.1875,-0.093994140625,0.94140625,-0.275390625,-0.9460448622703552,6.683349132537842,-0.0915527269244194,60.0,79.0,1.0,Rest
349639.6875,420172.59375,750000.0625,750000.0625,679808.0625,307725.34375,357093.375,268241.875,-0.095458984375,0.944091796875,-0.26904296875,-0.8239745497703552,6.683349132537842,-0.1525878757238388,60.0,80.0,1.0,Rest
348088.03125,417900.5625,750000.0625,750000.0625,675673.4375,306377.0,355277.25,267559.5,-0.098876953125,0.94677734375,-0.264892578125,-1.0070799589157104,6.774901866912842,-0.0915527269244194,60.0,81.0,1.0,Rest
346473.4375,415559.1875,750000.0625,750000.0625,671593.125,304998.78125,353498.3125,266882.4375,-0.103759765625,0.948974609375,-0.265380859375,-1.2512205839157104,6.713866710662842,-0.1525878757238388,60.0,82.0,1.0,Rest
344704.78125,413068.03125,750000.0625,750000.0625,667477.1875,303545.8125,351722.40625,266193.28125,-0.1103515625,0.951416015625,-0.26123046875,-1.3427733182907104,6.622313976287842,-0.0610351525247097,60.0,83.0,1.0,Rest
342989.78125,410660.9375,750000.0625,750000.0625,663427.375,302141.96875,349993.03125,265524.34375,-0.118408203125,0.955078125,-0.2607421875,-1.5563963651657104,6.378173351287842,-0.03051757626235485,60.0,84.0,1.0,Rest
341562.03125,408573.0,750000.0625,750000.0625,659622.1875,300920.3125,348389.40625,264942.75,-0.1298828125,0.95556640625,-0.25927734375,-1.6784666776657104,6.072997570037842,-0.0610351525247097,60.0,85.0,1.0,Rest
340399.90625,406769.84375,750000.0625,750000.0625,656094.875,299869.0625,346925.1875,264446.375,-0.136474609375,0.95947265625,-0.2587890625,-2.044677495956421,5.462646007537842,-0.2746581733226776,60.0,86.0,1.0,Rest
339222.53125,404937.09375,750000.0625,750000.0625,652646.0,298806.4375,345492.4375,263948.09375,-0.143798828125,0.96630859375,-0.259765625,-2.288818120956421,4.821776866912842,-0.3662109076976776,60.0,87.0,1.0,Rest
337884.1875,402927.6875,749635.0,749348.875,649132.875,297638.0,344023.9375,263396.46875,-0.14892578125,0.968994140625,-0.25732421875,-2.777099370956421,4.119872570037842,-0.3662109076976776,60.0,88.0,1.0,Rest
336583.21875,400974.125,748349.25,748062.0625,645669.75,296508.96875,342589.125,262868.25,-0.14892578125,0.966796875,-0.253662109375,-3.143310308456421,3.234863042831421,-0.3662109076976776,60.0,89.0,1.0,Rest
335521.0625,399286.03125,747116.0625,746827.8125,642413.1875,295536.84375,341256.53125,262411.5625,-0.1494140625,0.962646484375,-0.251708984375,-3.662109136581421,2.227782964706421,-0.3662109076976776,60.0,90.0,1.0,Rest
334644.34375,397796.53125,745932.0,745642.875,639359.875,294676.03125,340016.1875,262006.453125,-0.1494140625,0.9580078125,-0.251220703125,-4.089354991912842,1.3427733182907104,-0.3356933295726776,60.0,91.0,1.0,Rest
333690.8125,396224.21875,744793.9375,744503.75,636333.5625,293770.59375,338788.8125,261585.15625,-0.1484375,0.951904296875,-0.250732421875,-4.425048351287842,0.5187987685203552,-0.2136230319738388,60.0,92.0,1.0,Rest
332530.0625,394436.4375,743699.4375,743407.6875,633206.0,292746.625,337525.65625,261116.75,-0.1494140625,0.947998046875,-0.25390625,-4.547118663787842,-0.2746581733226776,-0.0610351525247097,60.0,93.0,1.0,Rest
331372.125,392676.0,742649.8125,742356.375,630086.25,291733.0,336279.59375,260652.734375,-0.14892578125,0.948974609375,-0.2548828125,-4.547118663787842,-1.0681151151657104,0.03051757626235485,60.0,94.0,1.0,Rest
330430.59375,391169.125,741643.8125,741348.6875,627152.0625,290864.6875,335122.75,260255.40625,-0.15185546875,0.946533203125,-0.257568359375,-4.516601085662842,-1.8310545682907104,0.1831054538488388,60.0,95.0,1.0,Rest
329668.5625,389864.78125,740677.1875,740381.25,624419.0,290113.6875,334060.34375,259924.0625,-0.1513671875,0.944091796875,-0.261474609375,-4.547118663787842,-2.593993902206421,0.2441406100988388,60.0,96.0,1.0,Rest
328815.71875,388468.40625,739744.8125,739447.6875,621694.375,289309.46875,332989.5,259566.890625,-0.152587890625,0.94140625,-0.26025390625,-4.455565929412842,-3.387450933456421,0.3967284858226776,60.0,97.0,1.0,Rest
327787.375,386879.84375,738851.8125,738553.0,618884.8125,288410.375,331880.875,259176.625,-0.154052734375,0.940185546875,-0.25732421875,-4.547118663787842,-4.241942882537842,0.4577636420726776,60.0,98.0,1.0,Rest
326751.84375,385295.46875,737992.3125,737691.4375,616064.0,287515.25,330763.8125,258786.1875,-0.15771484375,0.93896484375,-0.256103515625,-4.486083507537842,-4.913329601287842,0.3967284858226776,60.0,99.0,1.0,Rest
325940.9375,383962.5625,737167.8125,736865.625,613420.75,286764.75,329733.03125,258466.46875,-0.162109375,0.939697265625,-0.251953125,-4.333495616912842,-5.493163585662842,0.4272460639476776,60.0,100.0,1.0,Rest
325334.3125,382849.5625,736379.6875,736076.0,610983.1875,286138.5625,328802.59375,258204.140625,-0.1630859375,0.9404296875,-0.2509765625,-4.425048351287842,-6.195067882537842,0.3051757514476776,60.0,101.0,1.0,Rest
324635.78125,381626.28125,735615.0625,735310.1875,608538.625,285446.625,327860.15625,257910.265625,-0.1640625,0.941650390625,-0.249755859375,-4.394530773162842,-6.896972179412842,0.2136230319738388,60.0,102.0,1.0,Rest
323740.71875,380199.96875,734877.625,734570.6875,605989.25,284646.15625,326880.78125,257574.8125,-0.165283203125,0.943359375,-0.249755859375,-4.455565929412842,-7.568358898162842,-0.1220703050494194,60.0,103.0,1.0,Rest
322834.5625,378781.25,734173.375,733864.5,603435.1875,283851.78125,325910.8125,257243.921875,-0.160888671875,0.942138671875,-0.25439453125,-4.577636241912842,-8.209227561950684,-0.5187987685203552,60.0,104.0,1.0,Rest
322140.59375,377613.78125,733500.5,733189.75,601054.0,283195.53125,325029.59375,256978.203125,-0.15625,0.94140625,-0.25732421875,-4.699706554412842,-8.666991233825684,-0.7934569716453552,60.0,105.0,1.0,Rest
321612.03125,376635.5,732850.4375,732537.5,598843.5,282648.8125,324226.71875,256761.109375,-0.149169921875,0.937255859375,-0.26171875,-4.699706554412842,-9.063719749450684,-0.9765624403953552,60.0,106.0,1.0,Rest
320990.09375,375548.9375,732224.75,731909.4375,596620.6875,282046.21875,323415.09375,256522.21875,-0.14208984375,0.9306640625,-0.261474609375,-5.004882335662842,-9.216307640075684,-1.0375975370407104,60.0,107.0,1.0,Rest
320167.375,374244.125,731619.1875,731301.5625,594271.25,281320.0625,322540.875,256229.328125,-0.131103515625,0.919677734375,-0.267578125,-4.974364757537842,-9.429930686950684,-0.9765624403953552,60.0,108.0,1.0,Rest
319352.0,372958.53125,731042.25,730721.3125,591915.4375,280605.78125,321667.46875,255941.96875,-0.12158203125,0.90771484375,-0.272705078125,-4.791259288787842,-9.368895530700684,-0.9460448622703552,60.0,109.0,1.0,Rest
318748.9375,371911.0625,730488.8125,730164.8125,589719.4375,280029.28125,320868.0625,255719.53125,-0.111328125,0.89404296875,-0.277587890625,-4.272460460662842,-9.033202171325684,-0.7324218153953552,60.0,110.0,1.0,Rest
318305.5,371037.375,729953.1875,729626.0625,587682.375,279549.0,320135.46875,255532.21875,-0.104248046875,0.885986328125,-0.281494140625,-3.417968511581421,-8.514403343200684,-0.7629393935203552,60.0,111.0,1.0,Rest
317776.03125,370068.09375,729439.1875,729107.25,585644.0625,279017.8125,319410.375,255328.8125,-0.09912109375,0.878662109375,-0.285888671875,-2.380370855331421,-7.965087413787842,-0.6408690810203552,60.0,112.0,1.0,Rest
317030.4375,368879.25,728941.3125,728601.0,583480.875,278364.53125,318630.21875,255071.5,-0.09619140625,0.87353515625,-0.291015625,-1.2512205839157104,-7.354735851287842,-0.5493163466453552,60.0,113.0,1.0,Rest
316273.8125,367697.75,728465.75,728103.625,581304.875,277723.9375,317853.96875,254823.40625,-0.09423828125,0.870361328125,-0.28955078125,0.03051757626235485,-6.591796398162842,-0.4272460639476776,60.0,114.0,1.0,Rest
315712.25,366746.28125,728002.4375,727502.8125,579272.375,277209.84375,317137.84375,254626.4375,-0.0908203125,0.868896484375,-0.288330078125,1.0681151151657104,-5.828856945037842,-0.2746581733226776,60.0,115.0,1.0,Rest
315326.71875,365982.65625,727548.6875,726709.0,577408.1875,276802.9375,316491.0625,254478.921875,-0.091552734375,0.8681640625,-0.29052734375,2.136230230331421,-4.821776866912842,-0.0915527269244194,60.0,116.0,1.0,Rest
314848.375,365107.71875,727119.4375,725819.5625,575526.4375,276341.875,315833.75,254308.421875,-0.093017578125,0.871826171875,-0.284912109375,3.112792730331421,-3.906249761581421,-0.0610351525247097,60.0,117.0,1.0,Rest
314158.34375,364000.78125,726708.1875,724813.75,573504.125,275752.40625,315114.09375,254082.21875,-0.091552734375,0.87548828125,-0.28515625,4.150390148162842,-2.899169683456421,0.1525878757238388,60.0,118.0,1.0,Rest
313463.84375,362896.59375,726315.3125,723786.625,571455.25,275163.21875,314392.21875,253862.453125,-0.09326171875,0.8837890625,-0.2841796875,4.974364757537842,-2.014159917831421,0.1220703050494194,60.0,119.0,1.0,Rest
312983.625,362033.46875,725937.875,722857.9375,569560.9375,274700.8125,313739.75,253697.140625,-0.095458984375,0.892822265625,-0.280029296875,5.737304210662842,-1.0681151151657104,0.2441406100988388,60.0,120.0,1.0,Rest
312665.25,361343.0625,725573.9375,722015.8125,567827.9375,274334.3125,313160.375,253574.5625,-0.09765625,0.90283203125,-0.281005859375,6.286620616912842,-0.2136230319738388,0.2136230319738388,60.0,121.0,1.0,Rest
312248.53125,360542.875,725223.125,721116.375,566076.1875,273911.0,312580.125,253429.28125,-0.098876953125,0.9091796875,-0.280029296875,6.469726085662842,0.5798339247703552,0.2136230319738388,60.0,122.0,1.0,Rest
311605.9375,359507.8125,724884.875,720100.4375,564187.375,273360.25,311938.375,253229.90625,-0.099365234375,0.91455078125,-0.280029296875,6.622313976287842,1.3122557401657104,0.2441406100988388,60.0,123.0,1.0,Rest
310938.09375,358462.90625,724558.8125,719086.5625,562257.8125,272799.75,311282.3125,253026.9375,-0.09912109375,0.921875,-0.2783203125,6.744384288787842,2.105712652206421,0.2746581733226776,60.0,124.0,1.0,Rest
310486.125,357659.125,724245.1875,718226.25,560476.125,272377.375,310702.5,252893.546875,-0.099609375,0.924560546875,-0.280517578125,6.652831554412842,2.807616949081421,0.5187987685203552,60.0,125.0,1.0,Rest
310210.5625,357036.84375,723944.4375,717481.1875,558856.3125,272058.46875,310193.0625,252809.78125,-0.09619140625,0.926513671875,-0.281982421875,6.530761241912842,3.601073980331421,0.6713866591453552,60.0,126.0,1.0,Rest
309840.0625,356298.34375,723654.8125,716693.875,557220.25,271677.34375,309667.15625,252695.15625,-0.093994140625,0.926513671875,-0.286865234375,6.500243663787842,4.241942882537842,0.5187987685203552,60.0,127.0,1.0,Rest
309258.75,355328.28125,723375.0,715805.25,555443.5,271165.46875,309075.375,252521.96875,-0.087646484375,0.927734375,-0.287109375,6.469726085662842,4.882812023162842,0.4272460639476776,60.0,128.0,1.0,Rest
308648.375,354341.96875,723106.9375,714922.125,553625.3125,270643.25,308472.0625,252345.3125,-0.083251953125,0.92724609375,-0.28857421875,6.500243663787842,5.584716320037842,0.4882812201976776,60.0,129.0,1.0,Rest
308229.3125,353578.15625,722846.4375,714170.625,551941.3125,270248.0625,307936.15625,252229.875,-0.0791015625,0.92578125,-0.291015625,6.469726085662842,6.317138195037842,0.5798339247703552,60.0,130.0,1.0,Rest
307964.125,352981.8125,722594.8125,713509.75,550405.0,269945.0625,307464.4375,252147.1875,-0.076904296875,0.925537109375,-0.295654296875,6.469726085662842,7.232665538787842,0.6713866591453552,60.0,131.0,1.0,Rest
307608.125,352278.4375,722354.6875,712812.1875,548841.6875,269584.84375,306977.625,252043.921875,-0.07080078125,0.92529296875,-0.294677734375,6.439208507537842,8.087157249450684,0.7934569716453552,60.0,132.0,1.0,Rest
307023.21875,351331.1875,722118.9375,712015.5,547129.0625,269094.8125,306422.75,251885.9375,-0.0654296875,0.92431640625,-0.297119140625,6.347655773162842,9.002684593200684,0.8544921278953552,60.0,133.0,1.0,Rest
306412.21875,350370.6875,721894.6875,711221.25,545376.625,268598.6875,305861.1875,251726.609375,-0.059814453125,0.922119140625,-0.295654296875,6.317138195037842,9.918211936950684,1.0375975370407104,60.0,134.0,1.0,Rest
306007.03125,349637.09375,721680.3125,710549.75,543753.9375,268225.9375,305359.8125,251623.078125,-0.0576171875,0.918212890625,-0.297607421875,6.286620616912842,10.833739280700684,1.0070799589157104,60.0,135.0,1.0,Rest
305772.3125,349081.59375,721475.0,709976.625,542289.8125,267953.34375,304929.65625,251566.296875,-0.06103515625,0.9169921875,-0.300048828125,6.195067882537842,11.901854515075684,1.0681151151657104,60.0,136.0,1.0,Rest
305437.125,348404.15625,721274.1875,709349.8125,540793.3125,267608.34375,304475.375,251477.609375,-0.06689453125,0.91943359375,-0.303955078125,6.408690929412842,12.847899436950684,1.0681151151657104,60.0,137.0,1.0,Rest
304892.03125,347493.125,721078.875,708627.3125,539153.5,267130.375,303955.65625,251334.203125,-0.07080078125,0.924560546875,-0.305419921875,6.530761241912842,13.641356468200684,0.9155272841453552,60.0,138.0,1.0,Rest
304331.875,346579.46875,720893.25,707905.8125,537478.1875,266648.09375,303431.125,251189.984375,-0.07666015625,0.930419921875,-0.30517578125,6.561278820037842,14.404295921325684,0.6713866591453552,60.0,139.0,1.0,Rest
303968.4375,345891.75,720717.1875,707299.6875,535939.0625,266295.46875,302976.46875,251108.0,-0.082275390625,0.934814453125,-0.303955078125,6.408690929412842,14.923094749450684,0.3967284858226776,60.0,140.0,1.0,Rest
303762.09375,345377.75,720543.0,706776.4375,534544.6875,266037.625,302582.71875,251066.78125,-0.08740234375,0.93896484375,-0.301025390625,6.195067882537842,15.350340843200684,-0.03051757626235485,60.0,141.0,1.0,Rest
303454.90625,344744.46875,720374.375,706202.3125,533120.25,265720.5,302164.40625,250991.421875,-0.093505859375,0.9423828125,-0.302001953125,5.950927257537842,15.655516624450684,-0.5798339247703552,60.0,142.0,1.0,Rest
302933.46875,343875.25,720210.1875,705523.4375,531546.6875,265278.84375,301677.3125,250858.296875,-0.097412109375,0.9462890625,-0.3037109375,5.645751476287842,15.991209983825684,-1.0375975370407104,60.0,143.0,1.0,Rest
302393.28125,342993.875,720054.6875,704843.4375,529929.25,264829.125,301181.375,250723.640625,-0.1025390625,0.950439453125,-0.304931640625,5.340575695037842,16.235349655151367,-1.5258787870407104,60.0,144.0,1.0,Rest
302024.5625,342302.6875,719902.875,704263.1875,528417.875,264478.8125,300735.84375,250629.59375,-0.10888671875,0.954833984375,-0.3046875,5.035399913787842,16.387937545776367,-2.166747808456421,60.0,145.0,1.0,Rest
301812.5,341772.5,719758.375,703770.0,527043.0625,264222.75,300351.65625,250578.53125,-0.115478515625,0.958740234375,-0.304931640625,4.486083507537842,16.296384811401367,-2.716064214706421,60.0,146.0,1.0,Rest
301498.40625,341119.375,719615.8125,703222.5,525632.9375,263901.6875,299951.03125,250500.125,-0.120849609375,0.960693359375,-0.306884765625,4.089354991912842,16.021726608276367,-3.326415777206421,60.0,147.0,1.0,Rest
300956.78125,340220.65625,719476.6875,702563.4375,524065.375,263444.46875,299480.125,250362.34375,-0.1240234375,0.957763671875,-0.305419921875,3.753661870956421,15.716551780700684,-4.028319835662842,60.0,148.0,1.0,Rest
300371.96875,339291.375,719346.5625,701901.875,522441.03125,262974.1875,298988.84375,250222.515625,-0.127685546875,0.95654296875,-0.310302734375,3.234863042831421,15.472411155700684,-4.730224132537842,60.0,149.0,1.0,Rest
299982.34375,338578.96875,719221.3125,701351.1875,520939.4375,262623.25,298560.75,250138.109375,-0.1337890625,0.9541015625,-0.3095703125,2.960204839706421,14.984129905700684,-5.645751476287842,60.0,150.0,1.0,Rest
299743.78125,338018.125,719101.3125,700885.125,519569.71875,262360.21875,298190.6875,250092.703125,-0.1376953125,0.95263671875,-0.3125,2.593993902206421,14.434813499450684,-6.347655773162842,60.0,151.0,1.0,Rest
299442.21875,337382.625,718984.8125,700399.0,518193.9375,262058.484375,297817.4375,250036.1875,-0.140625,0.948974609375,-0.31103515625,2.410888433456421,13.916014671325684,-7.354735851287842,60.0,152.0,1.0,Rest
298947.625,336553.1875,718868.0,699818.75,516695.03125,261645.328125,297382.28125,249928.640625,-0.14111328125,0.946533203125,-0.312255859375,1.9836424589157104,13.122557640075684,-8.209227561950684,60.0,153.0,1.0,Rest
298436.40625,335746.09375,718755.5,699232.1875,515162.3125,261230.65625,296932.9375,249814.375,-0.140380859375,0.943603515625,-0.31298828125,1.7089842557907104,12.481688499450684,-9.063719749450684,60.0,154.0,1.0,Rest
298170.84375,335236.84375,718650.1875,698786.75,513802.625,260970.484375,296572.34375,249777.0,-0.1396484375,0.941162109375,-0.315673828125,1.4953612089157104,11.901854515075684,-9.918211936950684,60.0,155.0,1.0,Rest
298095.21875,334913.625,718548.6875,698438.9375,512622.875,260826.8125,296290.8125,249790.40625,-0.138427734375,0.938232421875,-0.3193359375,1.2817381620407104,11.291502952575684,-10.864256858825684,60.0,156.0,1.0,Rest
297956.46875,334490.65625,718448.25,698047.9375,511448.34375,260639.59375,296007.21875,249781.109375,-0.139404296875,0.9384765625,-0.3203125,1.2207030057907104,10.681151390075684,-11.596678733825684,60.0,157.0,1.0,Rest
297638.96875,333870.625,718352.625,697576.0,510181.53125,260358.859375,295688.90625,249734.171875,-0.139404296875,0.937255859375,-0.322021484375,1.1291502714157104,10.101317405700684,-12.298583030700684,60.0,158.0,1.0,Rest
297298.59375,333252.90625,718260.5625,697094.6875,508887.90625,260073.828125,295358.375,249678.921875,-0.136962890625,0.935791015625,-0.324951171875,1.0681151151657104,9.552000999450684,-13.092040061950684,60.0,159.0,1.0,Rest
297152.15625,332864.96875,718172.75,696716.3125,507736.8125,259913.25,295087.21875,249669.53125,-0.135498046875,0.932373046875,-0.32568359375,1.1291502714157104,8.941649436950684,-14.007567405700684,60.0,160.0,1.0,Rest
297175.3125,332657.375,718087.75,696418.5,506743.65625,259848.703125,294876.28125,249702.609375,-0.134765625,0.931396484375,-0.32470703125,1.1596678495407104,8.300780296325684,-14.495848655700684,60.0,161.0,1.0,Rest
297109.5,332342.375,718001.4375,696065.625,505727.28125,259722.90625,294638.84375,249702.796875,-0.132080078125,0.928955078125,-0.325439453125,0.8850097060203552,7.720946788787842,-15.014647483825684,60.0,162.0,1.0,Rest
296832.34375,331804.5,717918.1875,695606.625,504575.375,259476.578125,294342.1875,249645.65625,-0.13037109375,0.926513671875,-0.32568359375,1.0375975370407104,7.171630382537842,-15.594481468200684,60.0,163.0,1.0,Rest
296521.75,331244.03125,717840.875,695138.6875,503381.96875,259211.765625,294026.46875,249579.859375,-0.12646484375,0.925537109375,-0.327880859375,1.1596678495407104,6.713866710662842,-16.021726608276367,60.0,164.0,1.0,Rest
296436.28125,330926.34375,717767.375,694795.0,502341.4375,259077.390625,293783.21875,249575.390625,-0.12744140625,0.921875,-0.329345703125,1.1901854276657104,6.134032726287842,-16.326902389526367,60.0,165.0,1.0,Rest
296520.3125,330788.03125,717694.625,694537.25,501457.03125,259041.53125,293609.03125,249617.234375,-0.130615234375,0.9228515625,-0.328857421875,1.2512205839157104,5.523681163787842,-16.510007858276367,60.0,166.0,1.0,Rest
296543.03125,330577.40625,717623.0,694235.9375,500577.8125,258960.890625,293431.9375,249636.453125,-0.138427734375,0.924560546875,-0.333740234375,1.4038084745407104,5.004882335662842,-16.754148483276367,60.0,167.0,1.0,Rest
296388.15625,330177.40625,717551.375,693856.75,499606.75,258779.484375,293219.40625,249617.953125,-0.143310546875,0.927978515625,-0.337890625,1.6479490995407104,4.302978038787842,-17.059324264526367,60.0,168.0,1.0,Rest
296227.5,329788.65625,717482.375,693477.125,498632.03125,258611.125,293006.15625,249597.828125,-0.15673828125,0.93359375,-0.336669921875,1.7700194120407104,3.265380620956421,-17.425535202026367,60.0,169.0,1.0,Rest
296282.59375,329637.8125,717418.4375,693204.8125,497806.8125,258570.171875,292857.75,249629.125,-0.163330078125,0.936767578125,-0.33642578125,1.6784666776657104,2.227782964706421,-17.883298873901367,60.0,170.0,1.0,Rest
296506.90625,329661.4375,717353.875,693005.0625,497127.0625,258617.390625,292762.09375,249691.171875,-0.16943359375,0.93798828125,-0.33642578125,1.5258787870407104,1.2512205839157104,-18.341062545776367,60.0,171.0,1.0,Rest
296622.0625,329560.9375,717291.125,692734.25,496406.875,258591.28125,292632.625,249715.578125,-0.17529296875,0.938232421875,-0.33544921875,1.6784666776657104,0.1525878757238388,-18.798826217651367,60.0,172.0,1.0,Rest
296493.9375,329198.84375,717228.0625,692344.3125,495526.84375,258413.171875,292423.40625,249671.765625,-0.1845703125,0.9384765625,-0.33056640625,1.6479490995407104,-1.0375975370407104,-19.256589889526367,60.0,173.0,1.0,Rest
296335.6875,328820.8125,717171.0625,691948.4375,494596.90625,258214.15625,292192.375,249619.28125,-0.1884765625,0.93408203125,-0.325927734375,1.4343260526657104,-2.105712652206421,-19.805906295776367,60.0,174.0,1.0,Rest
296372.875,328659.8125,717116.3125,691659.375,493791.53125,258129.765625,292004.8125,249617.40625,-0.193359375,0.93115234375,-0.32421875,1.2817381620407104,-3.479003667831421,-20.324705123901367,60.0,175.0,1.0,Rest
296559.46875,328655.40625,717063.3125,691449.375,493122.59375,258131.640625,291874.53125,249653.34375,-0.197998046875,0.928466796875,-0.327392578125,1.1291502714157104,-4.760741710662842,-21.026609420776367,60.0,176.0,1.0,Rest
296631.34375,328528.46875,717009.5,691183.1875,492410.21875,258053.5,291727.75,249656.84375,-0.201416015625,0.920166015625,-0.3271484375,0.9765624403953552,-6.195067882537842,-21.575925827026367,60.0,177.0,1.0,Rest
296475.53125,328169.125,716958.25,690817.375,491555.03125,257851.96875,291528.8125,249608.109375,-0.203857421875,0.914306640625,-0.32861328125,0.9460448622703552,-7.507323741912842,-22.247312545776367,60.0,178.0,1.0,Rest
296275.875,327785.75,716905.6875,690441.3125,490643.4375,257635.703125,291308.0625,249548.484375,-0.2080078125,0.91064453125,-0.332275390625,1.1901854276657104,-8.941649436950684,-22.766111373901367,60.0,179.0,1.0,Rest
296300.8125,327641.09375,716845.875,690188.0,489877.5,257554.0625,291153.375,249549.1875,-0.212890625,0.9072265625,-0.3330078125,1.3732908964157104,-10.314940452575684,-23.498533248901367,60.0,180.0,1.0,Rest
296553.3125,327720.9375,716787.75,690047.5625,489310.90625,257616.65625,291082.9375,249612.3125,-0.213623046875,0.90869140625,-0.333251953125,1.5563963651657104,-11.657713890075684,-24.230955123901367,60.0,181.0,1.0,Rest
296738.28125,327725.0625,716734.125,689851.5625,488742.71875,257637.03125,290993.875,249643.25,-0.212158203125,0.91162109375,-0.332275390625,1.8005369901657104,-13.122557640075684,-24.688718795776367,60.0,182.0,1.0,Rest
296663.71875,327460.5,716712.5,689540.6875,488002.4375,257502.03125,290815.96875,249601.578125,-0.2099609375,0.916259765625,-0.329345703125,1.5563963651657104,-14.465331077575684,-25.115964889526367,60.0,183.0,1.0,Rest
296505.1875,327132.46875,716676.4375,689237.0,487168.625,257331.265625,290589.59375,249542.3125,-0.201904296875,0.918212890625,-0.325927734375,1.5869139432907104,-15.808104515075684,-25.390623092651367,60.0,184.0,1.0,Rest
296526.40625,327003.1875,716636.125,689022.4375,486451.84375,257281.5625,290414.53125,249538.734375,-0.19140625,0.923583984375,-0.322021484375,1.3732908964157104,-16.815183639526367,-25.482175827026367,60.0,185.0,1.0,Rest
296741.40625,327065.59375,716597.875,688886.0,485899.5,257346.015625,290312.15625,249580.21875,-0.177490234375,0.924560546875,-0.3232421875,1.2207030057907104,-17.578123092651367,-25.360105514526367,60.0,186.0,1.0,Rest
296895.46875,327050.125,716557.375,688712.375,485350.53125,257365.78125,290208.34375,249610.25,-0.167236328125,0.9267578125,-0.32080078125,1.3122557401657104,-17.944334030151367,-24.902341842651367,60.0,187.0,1.0,Rest
296860.3125,326831.34375,716516.0625,688439.375,484683.84375,257260.640625,290056.53125,249593.09375,-0.159423828125,0.931884765625,-0.3232421875,1.0986326932907104,-18.127439498901367,-24.475095748901367,60.0,188.0,1.0,Rest
296795.34375,326601.5625,716476.0625,688146.25,483977.875,257127.953125,289895.25,249557.953125,-0.156494140625,0.932861328125,-0.322021484375,0.7934569716453552,-18.280027389526367,-23.956296920776367,60.0,189.0,1.0,Rest
296925.6875,326595.21875,716440.4375,687962.125,483420.34375,257124.015625,289806.5625,249583.078125,-0.155029296875,0.937255859375,-0.321044921875,0.2136230319738388,-18.493650436401367,-23.315427780151367,60.0,190.0,1.0,Rest
297227.0625,326767.6875,716410.1875,687865.375,483019.4375,257225.9375,289789.3125,249660.234375,-0.15478515625,0.93798828125,-0.321044921875,-0.5798339247703552,-18.646238327026367,-22.491453170776367,60.0,191.0,1.0,Rest
297417.15625,326821.0625,716375.3125,687707.0625,482575.875,257248.390625,289733.6875,249693.234375,-0.156494140625,0.935546875,-0.3193359375,-1.1291502714157104,-18.829343795776367,-21.636960983276367,60.0,192.0,1.0,Rest
297384.53125,326637.0625,716340.875,687434.1875,481992.9375,257148.421875,289606.90625,249669.359375,-0.16015625,0.9345703125,-0.315673828125,-1.6784666776657104,-18.920896530151367,-20.965574264526367,60.0,193.0,1.0,Rest
297301.375,326401.03125,716306.75,687141.5,481346.28125,257028.171875,289440.4375,249631.359375,-0.1640625,0.934814453125,-0.30712890625,-2.166747808456421,-18.951414108276367,-20.263669967651367,60.0,194.0,1.0,Rest
297451.5,326412.28125,716274.75,686970.6875,480845.3125,257039.34375,289328.875,249658.625,-0.169189453125,0.937255859375,-0.303955078125,-2.655029058456421,-19.012449264526367,-19.805906295776367,60.0,195.0,1.0,Rest
297800.71875,326630.34375,716244.625,686882.1875,480510.125,257169.890625,289276.75,249729.25,-0.17138671875,0.938720703125,-0.2978515625,-3.234863042831421,-19.256589889526367,-19.104001998901367,60.0,196.0,1.0,Rest
298072.78125,326746.21875,716214.6875,686743.5,480161.625,257244.71875,289216.3125,249775.84375,-0.175537109375,0.944580078125,-0.285888671875,-4.028319835662842,-19.378660202026367,-18.463132858276367,60.0,197.0,1.0,Rest
298129.1875,326623.1875,716185.125,686495.4375,479677.3125,257185.625,289094.96875,249764.9375,-0.177734375,0.94921875,-0.277587890625,-4.943847179412842,-19.653318405151367,-17.547605514526367,60.0,198.0,1.0,Rest
298109.4375,326450.09375,716156.375,686218.0625,479128.71875,257098.265625,288947.625,249743.296875,-0.179931640625,0.949951171875,-0.269775390625,-6.317138195037842,-20.019529342651367,-16.662595748901367,60.0,199.0,1.0,Rest
298251.9375,326478.625,716130.0625,686033.875,478697.15625,257124.015625,288858.40625,249794.078125,-0.18310546875,0.947265625,-0.26318359375,-7.873534679412842,-20.416257858276367,-15.686034202575684,60.0,200.0,1.0,Rest
298560.59375,326679.0,716102.375,685922.3125,478394.21875,257235.59375,288828.71875,249866.859375,-0.188720703125,0.943603515625,-0.2607421875,-9.460448265075684,-20.690916061401367,-14.587401390075684,60.0,201.0,1.0,Rest
298755.65625,326735.65625,716073.5625,685735.4375,478031.6875,257263.5,288763.375,249866.5,-0.1953125,0.945556640625,-0.258056640625,-10.528563499450684,-20.965574264526367,-13.763426780700684,60.0,202.0,1.0,Rest
298706.125,326518.84375,716048.875,685429.25,477502.3125,257148.875,288625.9375,249819.296875,-0.205810546875,0.953857421875,-0.252197265625,-11.199950218200684,-21.240232467651367,-13.122557640075684,60.0,203.0,1.0,Rest
298594.5625,326250.1875,716021.875,685099.25,476898.0,257002.6875,288465.375,249762.0625,-0.212890625,0.964111328125,-0.247314453125,-11.840819358825684,-21.789548873901367,-12.664793968200684,60.0,204.0,1.0,Rest
298655.625,326185.1875,715996.4375,684852.5625,476400.1875,256970.78125,288347.875,249753.390625,-0.21484375,0.978271484375,-0.242431640625,-12.451170921325684,-22.613523483276367,-12.176512718200684,60.0,205.0,1.0,Rest
298861.0,326281.21875,715972.75,684668.1875,476025.40625,257032.203125,288276.625,249776.546875,-0.214599609375,0.990478515625,-0.232421875,-13.183592796325684,-23.651121139526367,-11.383055686950684,60.0,206.0,1.0,Rest
298938.3125,326241.53125,715948.75,684421.875,475600.96875,257014.5,288179.8125,249766.984375,-0.2109375,0.9990234375,-0.2265625,-14.556883811950684,-24.444578170776367,-10.314940452575684,60.0,207.0,1.0,Rest
298764.59375,325937.28125,715927.5625,684058.625,475003.90625,256850.171875,287997.21875,249696.984375,-0.205322265625,1.006591796875,-0.217041015625,-16.204832077026367,-25.268552780151367,-9.246825218200684,60.0,208.0,1.0,Rest
298542.34375,325591.0,715907.5625,683682.3125,474336.40625,256666.96875,287783.09375,249627.953125,-0.1962890625,1.011474609375,-0.212158203125,-18.218992233276367,-25.939939498901367,-8.026122093200684,60.0,209.0,1.0,Rest
298514.09375,325463.21875,715888.75,683423.5625,473787.28125,256607.34375,287628.96875,249621.171875,-0.18798828125,1.00341796875,-0.2080078125,-20.263669967651367,-26.397703170776367,-6.713866710662842,60.0,210.0,1.0,Rest
298655.09375,325517.9375,715869.5625,683246.25,473372.34375,256642.390625,287537.15625,249656.296875,-0.179931640625,0.997314453125,-0.201171875,-22.003171920776367,-26.733396530151367,-5.126952648162842,60.0,211.0,1.0,Rest
298660.0,325421.84375,715847.375,682977.0625,472883.90625,256582.125,287405.625,249638.953125,-0.175537109375,0.992919921875,-0.201416015625,-22.857664108276367,-26.794431686401367,-4.394530773162842,60.0,212.0,1.0,Rest
298425.3125,325073.15625,715823.4375,682619.4375,472231.3125,256380.78125,287210.53125,249567.15625,-0.171875,0.98193359375,-0.207275390625,-24.230955123901367,-26.763914108276367,-2.868652105331421,60.0,213.0,1.0,Rest
298134.375,324685.375,715801.4375,682262.375,471517.59375,256158.6875,287002.9375,249490.1875,-0.1708984375,0.970947265625,-0.208984375,-25.146482467651367,-26.763914108276367,-1.5563963651657104,60.0,214.0,1.0,Rest
298036.125,324515.96875,715780.125,682014.25,470927.84375,256061.953125,286856.84375,249470.15625,-0.172607421875,0.96142578125,-0.210693359375,-26.031492233276367,-26.794431686401367,-0.3967284858226776,60.0,215.0,1.0,Rest
298106.9375,324513.625,715759.5,681808.1875,470475.09375,256064.640625,286762.0625,249479.8125,-0.17578125,0.94970703125,-0.2109375,-26.458738327026367,-26.763914108276367,0.7324218153953552,60.0,216.0,1.0,Rest
298092.96875,324392.59375,715740.8125,681573.1875,469982.1875,256010.015625,286647.8125,249472.390625,-0.17822265625,0.944580078125,-0.21142578125,-26.885984420776367,-26.641843795776367,1.7089842557907104,60.0,217.0,1.0,Rest
297833.34375,323986.125,715721.0625,681224.875,469304.75,255800.171875,286440.125,249397.296875,-0.175048828125,0.937255859375,-0.208984375,-27.038572311401367,-26.550291061401367,2.471923589706421,60.0,218.0,1.0,Rest
297540.53125,323546.78125,715701.8125,680851.4375,468557.5,255572.8125,286193.4375,249307.25,-0.17041015625,0.924560546875,-0.2041015625,-27.191160202026367,-26.336668014526367,3.051757574081421,60.0,219.0,1.0,Rest
297465.0,323354.03125,715689.3125,680605.625,467950.15625,255496.640625,286013.21875,249295.90625,-0.166748046875,0.912841796875,-0.197021484375,-27.008054733276367,-26.123044967651367,3.906249761581421,60.0,220.0,1.0,Rest
297543.40625,323333.8125,715675.6875,680435.6875,467481.75,255511.203125,285887.9375,249324.15625,-0.1640625,0.902099609375,-0.19287109375,-26.733396530151367,-25.756834030151367,4.699706554412842,60.0,221.0,1.0,Rest
297524.53125,323194.71875,715656.75,680210.9375,466973.84375,255441.46875,285732.09375,249312.796875,-0.1611328125,0.8955078125,-0.194580078125,-26.550291061401367,-25.177000045776367,5.249022960662842,60.0,222.0,1.0,Rest
297290.90625,322813.125,715637.875,679892.375,466302.21875,255230.109375,285511.1875,249243.15625,-0.15966796875,0.886962890625,-0.188720703125,-25.939939498901367,-24.536130905151367,5.767821788787842,60.0,223.0,1.0,Rest
297004.4375,322383.15625,715620.125,679535.625,465573.8125,254999.796875,285281.59375,249164.109375,-0.158447265625,0.88134765625,-0.1884765625,-25.299070358276367,-23.986814498901367,6.256103038787842,60.0,224.0,1.0,Rest
296930.15625,322186.5625,715606.875,679299.5625,464978.71875,254912.265625,285149.34375,249152.578125,-0.160400390625,0.880859375,-0.186279296875,-24.444578170776367,-23.376462936401367,6.866454601287842,60.0,225.0,1.0,Rest
297030.46875,322177.0,715593.375,679149.8125,464526.75,254922.015625,285089.09375,249189.234375,-0.16259765625,0.882568359375,-0.186767578125,-23.529050827026367,-22.644041061401367,7.324218273162842,60.0,226.0,1.0,Rest
297021.4375,322031.78125,715576.9375,678927.3125,464020.71875,254848.796875,284981.8125,249181.546875,-0.161376953125,0.884521484375,-0.182861328125,-22.552488327026367,-22.064207077026367,7.568358898162842,60.0,227.0,1.0,Rest
296779.78125,321622.03125,715559.0625,678590.3125,463339.25,254638.140625,284788.15625,249111.984375,-0.160888671875,0.88916015625,-0.177734375,-21.728513717651367,-21.453855514526367,7.843017101287842,60.0,228.0,1.0,Rest
296506.375,321189.03125,715545.625,678247.8125,462610.78125,254425.8125,284575.28125,249050.5625,-0.160888671875,0.895263671875,-0.17578125,-20.843503952026367,-21.057126998901367,8.239745140075684,60.0,229.0,1.0,Rest
296434.3125,320991.0,715533.125,678009.8125,462019.4375,254348.015625,284427.65625,249048.609375,-0.158203125,0.900634765625,-0.175537109375,-19.927976608276367,-20.629880905151367,8.483885765075684,60.0,230.0,1.0,Rest
296539.625,320988.78125,715521.1875,677867.0,461573.65625,254363.578125,284346.46875,249081.953125,-0.15380859375,0.904541015625,-0.1728515625,-19.104001998901367,-19.958494186401367,8.575438499450684,60.0,231.0,1.0,Rest
296538.90625,320855.375,715503.8125,677661.8125,461073.15625,254296.4375,284233.5625,249079.09375,-0.14990234375,0.904541015625,-0.171142578125,-18.463132858276367,-19.378660202026367,8.819579124450684,60.0,232.0,1.0,Rest
296307.6875,320461.28125,715489.625,677320.0,460413.3125,254095.453125,284052.5,249018.03125,-0.144287109375,0.906494140625,-0.170166015625,-17.761228561401367,-18.676755905151367,8.972167015075684,60.0,233.0,1.0,Rest
296038.78125,320040.4375,715479.75,676995.5625,459705.75,253887.75,283858.9375,248961.875,-0.140625,0.908935546875,-0.171142578125,-16.967771530151367,-17.913816452026367,9.216307640075684,60.0,234.0,1.0,Rest
295974.9375,319861.34375,715470.8125,676771.875,459139.8125,253816.046875,283732.25,248964.109375,-0.134033203125,0.911865234375,-0.16748046875,-16.204832077026367,-17.150876998901367,9.246825218200684,60.0,235.0,1.0,Rest
296074.15625,319860.375,715460.0,676619.8125,458716.1875,253839.296875,283660.0,248996.75,-0.130859375,0.914306640625,-0.163818359375,-15.411375999450684,-16.174314498901367,9.490965843200684,60.0,236.0,1.0,Rest
296070.59375,319731.25,715446.125,676415.0625,458238.40625,253786.640625,283559.15625,248994.421875,-0.128173828125,0.916748046875,-0.165771484375,-14.587401390075684,-15.258788108825684,9.521483421325684,60.0,237.0,1.0,Rest
295837.25,319342.875,715431.4375,676099.0625,457593.78125,253590.921875,283388.03125,248929.78125,-0.12548828125,0.924560546875,-0.16552734375,-13.946532249450684,-14.099120140075684,9.582518577575684,60.0,238.0,1.0,Rest
295564.71875,318933.21875,715420.75,675758.4375,456893.46875,253375.453125,283200.90625,248864.78125,-0.125732421875,0.928466796875,-0.1591796875,-13.305663108825684,-12.908934593200684,9.490965843200684,60.0,239.0,1.0,Rest
295487.40625,318768.78125,715412.9375,675557.8125,456339.40625,253303.03125,283085.84375,248874.53125,-0.12451171875,0.931640625,-0.15576171875,-12.664793968200684,-12.023924827575684,9.460448265075684,60.0,240.0,1.0,Rest
295568.125,318795.4375,715401.0625,675439.6875,455928.59375,253329.765625,283030.21875,248914.671875,-0.125244140625,0.935302734375,-0.154052734375,-12.207030296325684,-11.138915061950684,9.490965843200684,60.0,241.0,1.0,Rest
295549.96875,318692.625,715385.0625,675243.1875,455466.09375,253276.921875,282936.8125,248900.984375,-0.12255859375,0.936767578125,-0.1552734375,-11.871336936950684,-10.284422874450684,9.277342796325684,60.0,242.0,1.0,Rest
295329.84375,318341.875,715373.25,674924.25,454852.03125,253091.59375,282775.15625,248838.9375,-0.12255859375,0.936767578125,-0.15625,-11.383055686950684,-9.338377952575684,9.246825218200684,60.0,243.0,1.0,Rest
295086.21875,317968.40625,715365.3125,674636.625,454194.71875,252899.09375,282604.5625,248790.3125,-0.122802734375,0.93505859375,-0.1572265625,-10.803221702575684,-8.361815452575684,9.002684593200684,60.0,244.0,1.0,Rest
295034.09375,317831.375,715357.9375,674447.1875,453675.875,252844.375,282499.15625,248799.78125,-0.12158203125,0.934326171875,-0.15869140625,-10.406493186950684,-7.324218273162842,8.850096702575684,60.0,245.0,1.0,Rest
295168.21875,317893.15625,715349.9375,674357.375,453308.15625,252899.8125,282471.96875,248859.6875,-0.119384765625,0.93115234375,-0.159423828125,-9.887694358825684,-6.103515148162842,8.758543968200684,60.0,246.0,1.0,Rest
295193.15625,317810.34375,715337.5625,674185.75,452882.3125,252858.59375,282394.625,248862.28125,-0.118896484375,0.93212890625,-0.15673828125,-9.307860374450684,-5.126952648162842,8.544920921325684,60.0,247.0,1.0,Rest
294998.4375,317474.90625,715329.0625,673926.25,452299.09375,252675.671875,282241.65625,248818.734375,-0.118408203125,0.931396484375,-0.158203125,-8.483885765075684,-4.211425304412842,8.392333030700684,60.0,248.0,1.0,Rest
294743.25,317095.09375,715318.6875,673625.1875,451649.90625,252471.8125,282060.625,248766.4375,-0.11865234375,0.93310546875,-0.158935546875,-7.781981945037842,-3.417968511581421,8.148192405700684,60.0,249.0,1.0,Rest
294672.8125,316936.5,715305.9375,673416.625,451122.96875,252395.828125,281934.71875,248751.328125,-0.12255859375,0.93359375,-0.159912109375,-7.080077648162842,-2.746581792831421,7.751464366912842,60.0,250.0,1.0,Rest
294773.21875,316970.375,715297.0625,673328.0,450745.21875,252435.96875,281883.0625,248792.265625,-0.12451171875,0.936279296875,-0.1591796875,-6.561278820037842,-1.9836424589157104,7.446288585662842,60.0,251.0,1.0,Rest
294789.21875,316890.625,715289.125,673188.625,450325.09375,252411.015625,281813.75,248814.453125,-0.123779296875,0.938720703125,-0.156982421875,-6.042479991912842,-1.3122557401657104,7.141112804412842,60.0,252.0,1.0,Rest
294591.34375,316559.0,715279.375,672952.75,449743.6875,252245.890625,281672.3125,248771.703125,-0.125244140625,0.943603515625,-0.15283203125,-5.645751476287842,-0.6103515028953552,6.744384288787842,60.0,253.0,1.0,Rest
294330.375,316174.46875,715267.375,672649.5,449084.21875,252055.1875,281494.40625,248701.703125,-0.1240234375,0.9462890625,-0.152099609375,-5.126952648162842,-0.1220703050494194,6.317138195037842,60.0,254.0,1.0,Rest
294280.125,316037.21875,715259.25,672451.5625,448571.1875,252013.0625,281391.65625,248708.046875,-0.12255859375,0.948486328125,-0.151611328125,-4.791259288787842,0.4577636420726776,6.011962413787842,60.0,255.0,1.0,Rest
294415.03125,316101.59375,715254.4375,672415.875,448215.8125,252079.140625,281360.65625,248772.609375,-0.1201171875,0.949462890625,-0.153564453125,-4.516601085662842,1.1901854276657104,5.737304210662842,60.0,256.0,1.0,Rest
294405.375,315995.5625,715240.125,672222.125,447782.1875,252027.734375,281270.875,248754.71875,-0.1201171875,0.9501953125,-0.156982421875,-4.394530773162842,1.8920897245407104,5.371093273162842,60.0,257.0,1.0,Rest
294188.40625,315644.09375,715227.1875,671943.875,447202.71875,251842.75,281115.75,248692.046875,-0.119140625,0.94873046875,-0.156982421875,-3.967284917831421,2.502441167831421,4.974364757537842,60.0,258.0,1.0,Rest
293963.53125,315291.5,715222.25,671705.5625,446597.09375,251670.46875,280972.09375,248665.140625,-0.122802734375,0.946533203125,-0.158447265625,-3.784179449081421,3.143310308456421,4.699706554412842,60.0,259.0,1.0,Rest
293927.0625,315167.125,715219.9375,671583.25,446120.09375,251622.625,280889.125,248680.609375,-0.12451171875,0.945556640625,-0.16015625,-3.387450933456421,3.753661870956421,4.180907726287842,60.0,260.0,1.0,Rest
294041.59375,315211.65625,715211.875,671484.4375,445770.25,251661.4375,280846.71875,248715.921875,-0.126220703125,0.946044921875,-0.16064453125,-3.173827886581421,4.272460460662842,3.784179449081421,60.0,261.0,1.0,Rest
294061.0,315134.65625,715199.0625,671324.8125,445366.9375,251622.359375,280766.28125,248706.796875,-0.13134765625,0.943603515625,-0.16064453125,-2.716064214706421,4.638671398162842,3.173827886581421,60.0,262.0,1.0,Rest
293861.15625,314809.3125,715190.6875,671078.625,444808.6875,251456.15625,280623.65625,248655.5625,-0.13330078125,0.94287109375,-0.158447265625,-2.380370855331421,5.065917491912842,2.655029058456421,60.0,263.0,1.0,Rest
293621.65625,314448.46875,715185.375,670850.4375,444192.9375,251278.0625,280463.625,248617.21875,-0.13623046875,0.9423828125,-0.157958984375,-1.9836424589157104,5.432128429412842,1.8310545682907104,60.0,264.0,1.0,Rest
293564.0625,314312.40625,715177.875,670701.875,443692.6875,251217.609375,280358.46875,248611.84375,-0.142578125,0.940673828125,-0.157958984375,-1.8005369901657104,5.767821788787842,1.2207030057907104,60.0,265.0,1.0,Rest
293671.4375,314361.21875,715168.25,670521.8125,443330.6875,251249.984375,280302.15625,248613.734375,-0.145263671875,0.938232421875,-0.1552734375,-1.6479490995407104,6.011962413787842,0.7629393935203552,60.0,266.0,1.0,Rest
293707.5625,314308.0,715159.9375,670373.9375,442953.9375,251230.765625,280241.1875,248628.84375,-0.15185546875,0.939208984375,-0.15478515625,-1.3122557401657104,5.950927257537842,0.3051757514476776,60.0,267.0,1.0,Rest
293523.5625,313997.59375,715156.0625,670176.875,442423.84375,251077.96875,280122.4375,248606.484375,-0.1572265625,0.9384765625,-0.158203125,-1.0070799589157104,5.798339366912842,-0.3356933295726776,60.0,268.0,1.0,Rest
293291.8125,313641.75,715154.9375,669958.875,441827.5,250905.046875,279981.90625,248575.8125,-0.158447265625,0.937255859375,-0.158447265625,-0.8239745497703552,5.554198741912842,-0.9765624403953552,60.0,269.0,1.0,Rest
293227.71875,313492.875,715147.5,669774.4375,441331.5625,250838.34375,279876.75,248546.84375,-0.15966796875,0.937744140625,-0.157958984375,-0.2441406100988388,5.157470226287842,-1.6174315214157104,60.0,270.0,1.0,Rest
293357.8125,313560.9375,715143.0,669705.125,441004.78125,250905.234375,279856.1875,248615.15625,-0.1630859375,0.9375,-0.15966796875,0.0610351525247097,5.035399913787842,-2.441406011581421,60.0,271.0,1.0,Rest
293380.25,313497.8125,715136.125,669628.0,440630.34375,250894.140625,279806.03125,248646.0,-0.1640625,0.9384765625,-0.162109375,0.4577636420726776,4.760741710662842,-3.204345464706421,60.0,272.0,1.0,Rest
293157.34375,313155.71875,715121.1875,669298.8125,440061.625,250708.890625,279652.875,248567.5,-0.1650390625,0.93896484375,-0.16796875,0.8239745497703552,4.302978038787842,-3.845214605331421,60.0,273.0,1.0,Rest
292902.8125,312789.625,715113.0,669017.1875,439449.8125,250523.8125,279491.21875,248510.546875,-0.163330078125,0.938232421875,-0.166015625,1.2817381620407104,3.967284917831421,-4.669188976287842,60.0,274.0,1.0,Rest
292839.59375,312656.5625,715108.25,668830.75,438971.375,250474.015625,279390.84375,248504.03125,-0.1669921875,0.93994140625,-0.166748046875,1.5258787870407104,3.631591558456421,-5.340575695037842,60.0,275.0,1.0,Rest
292906.3125,312679.8125,715094.3125,668583.0625,438603.75,250490.109375,279310.1875,248467.28125,-0.1669921875,0.939208984375,-0.170166015625,1.8310545682907104,3.326415777206421,-5.981444835662842,60.0,276.0,1.0,Rest
292962.0,312649.875,715095.625,668485.8125,438262.03125,250504.328125,279269.40625,248514.84375,-0.168701171875,0.936767578125,-0.17578125,2.105712652206421,2.838134527206421,-6.561278820037842,60.0,277.0,1.0,Rest
292761.09375,312327.46875,715085.8125,668290.4375,437722.375,250348.765625,279127.0,248471.390625,-0.167236328125,0.935546875,-0.17626953125,2.471923589706421,2.441406011581421,-7.202147960662842,60.0,278.0,1.0,Rest
292506.46875,311966.96875,715078.3125,668110.125,437118.4375,250177.1875,278966.9375,248421.140625,-0.16748046875,0.931640625,-0.17529296875,2.929687261581421,2.136230230331421,-7.812499523162842,60.0,279.0,1.0,Rest
292413.03125,311816.59375,715069.4375,667819.4375,436617.3125,250109.59375,278847.59375,248379.125,-0.163330078125,0.929931640625,-0.1728515625,3.326415777206421,1.6174315214157104,-8.453368186950684,60.0,280.0,1.0,Rest
292555.46875,311914.125,715074.4375,667728.0625,436319.75,250205.4375,278836.0625,248447.875,-0.167236328125,0.931884765625,-0.174072265625,3.845214605331421,1.2512205839157104,-9.033202171325684,60.0,281.0,1.0,Rest
292587.5625,311875.34375,715070.625,667725.125,435963.90625,250221.4375,278781.625,248484.09375,-0.16552734375,0.93017578125,-0.173095703125,4.333495616912842,0.8239745497703552,-9.704588890075684,60.0,282.0,1.0,Rest
292361.8125,311546.84375,715058.0625,667384.6875,435408.34375,250054.15625,278617.09375,248411.3125,-0.167236328125,0.928955078125,-0.175048828125,4.974364757537842,0.5493163466453552,-10.437010765075684,60.0,283.0,1.0,Rest
292102.1875,311191.1875,715053.4375,667057.875,434810.75,249886.4375,278446.6875,248341.03125,-0.169677734375,0.928466796875,-0.1796875,5.737304210662842,0.2441406100988388,-11.230467796325684,60.0,284.0,1.0,Rest
292023.59375,311060.5625,715048.25,666937.8125,434340.5625,249837.0,278347.0,248349.171875,-0.17333984375,0.928955078125,-0.18115234375,6.591796398162842,0.0,-12.207030296325684,60.0,285.0,1.0,Rest
292107.625,311116.28125,715037.1875,666809.6875,434001.0625,249875.796875,278300.25,248365.53125,-0.1787109375,0.92919921875,-0.180419921875,7.293700695037842,-0.1525878757238388,-13.305663108825684,60.0,286.0,1.0,Rest
292140.625,311092.125,715033.75,666686.25,433657.3125,249880.0,278256.625,248394.140625,-0.1806640625,0.928466796875,-0.180908203125,8.148192405700684,-0.6713866591453552,-14.373778343200684,60.0,287.0,1.0,Rest
291952.0625,310820.5,715029.9375,666497.9375,433153.9375,249743.390625,278141.1875,248365.265625,-0.18310546875,0.925537109375,-0.180419921875,8.911131858825684,-1.1901854276657104,-15.472411155700684,60.0,288.0,1.0,Rest
291710.21875,310498.65625,715028.5,666304.8125,432597.375,249587.546875,277994.28125,248321.28125,-0.18701171875,0.9267578125,-0.1806640625,9.643553733825684,-1.8920897245407104,-16.571043014526367,60.0,289.0,1.0,Rest
291609.53125,310361.84375,715015.1875,666061.625,432129.0625,249508.59375,277875.03125,248287.65625,-0.186279296875,0.920654296875,-0.18212890625,10.284422874450684,-2.532958745956421,-17.578123092651367,60.0,290.0,1.0,Rest
291729.25,310453.59375,715014.8125,665855.25,431841.28125,249573.875,277859.65625,248325.484375,-0.1875,0.9169921875,-0.184326171875,11.047362327575684,-3.051757574081421,-18.615720748901367,60.0,291.0,1.0,Rest
291776.03125,310432.65625,715006.9375,665750.125,431506.53125,249569.390625,277821.125,248350.15625,-0.185791015625,0.9140625,-0.189453125,11.840819358825684,-3.692626714706421,-19.561765670776367,60.0,292.0,1.0,Rest
291638.34375,310186.96875,715007.8125,665689.1875,431046.09375,249454.953125,277739.03125,248354.09375,-0.1865234375,0.914306640625,-0.19091796875,12.786864280700684,-4.089354991912842,-20.294187545776367,60.0,293.0,1.0,Rest
291392.1875,309846.4375,714996.6875,665404.375,430468.6875,249274.625,277580.4375,248268.34375,-0.185791015625,0.9130859375,-0.196044921875,13.824461936950684,-4.638671398162842,-20.965574264526367,60.0,294.0,1.0,Rest
291325.21875,309734.125,714989.0625,665096.9375,430017.09375,249221.609375,277498.34375,248244.75,-0.185546875,0.9130859375,-0.19775390625,14.801024436950684,-5.126952648162842,-21.575925827026367,60.0,295.0,1.0,Rest
291475.4375,309844.28125,714990.125,665173.3125,429753.53125,249306.09375,277513.71875,248324.671875,-0.187255859375,0.91455078125,-0.201904296875,15.655516624450684,-5.554198741912842,-22.094724655151367,60.0,296.0,1.0,Rest
291492.96875,309802.875,714980.6875,665033.875,429407.15625,249286.25,277462.3125,248309.65625,-0.18994140625,0.9169921875,-0.204345703125,16.632078170776367,-6.072997570037842,-22.613523483276367,60.0,297.0,1.0,Rest
291291.4375,309510.53125,714972.5,664711.5,428900.40625,249129.78125,277336.71875,248240.359375,-0.1943359375,0.91650390625,-0.204833984375,17.578123092651367,-6.500243663787842,-23.071287155151367,60.0,298.0,1.0,Rest
291069.96875,309197.59375,714975.1875,664503.1875,428365.40625,248978.5,277219.125,248230.96875,-0.197021484375,0.919921875,-0.2060546875,18.432615280151367,-6.988524913787842,-23.620603561401367,60.0,299.0,1.0,Rest
290997.1875,309078.875,714966.5625,664336.625,427921.40625,248911.453125,277124.625,248213.546875,-0.201171875,0.921142578125,-0.207763671875,19.195554733276367,-7.446288585662842,-24.017332077026367,60.0,300.0,1.0,Rest
291131.40625,309188.21875,714964.1875,664297.375,427656.125,248975.734375,277117.9375,248264.953125,-0.203857421875,0.923095703125,-0.21142578125,20.050046920776367,-7.934569835662842,-24.353025436401367,60.0,301.0,1.0,Rest
291192.5625,309191.0625,714963.5625,664263.75,427368.78125,248979.40625,277098.78125,248303.9375,-0.20751953125,0.92333984375,-0.2109375,20.690916061401367,-8.422850608825684,-24.780271530151367,60.0,302.0,1.0,Rest
290999.625,308903.96875,714955.6875,663978.8125,426888.46875,248810.0625,276977.03125,248233.484375,-0.20849609375,0.92236328125,-0.21142578125,21.270750045776367,-8.941649436950684,-25.085447311401367,60.0,303.0,1.0,Rest
290741.3125,308560.75,714945.25,663650.75,426333.09375,248614.53125,276824.65625,248154.359375,-0.208984375,0.9228515625,-0.215087890625,21.759031295776367,-9.582518577575684,-25.451658248901367,60.0,304.0,1.0,Rest
290706.96875,308476.96875,714946.0,663570.6875,425936.21875,248578.953125,276768.78125,248179.921875,-0.209228515625,0.920654296875,-0.2197265625,22.186277389526367,-10.040282249450684,-25.787351608276367,60.0,305.0,1.0,Rest
290858.53125,308594.375,714946.0,663587.75,425689.25,248653.609375,276777.46875,248249.296875,-0.2060546875,0.917724609375,-0.220703125,22.766111373901367,-10.528563499450684,-26.031492233276367,60.0,306.0,1.0,Rest
290910.28125,308586.21875,714945.25,663420.25,425389.125,248650.390625,276745.8125,248253.953125,-0.2060546875,0.9189453125,-0.2265625,23.345945358276367,-10.803221702575684,-26.123044967651367,60.0,307.0,1.0,Rest
290709.75,308292.53125,714935.5,663193.875,424905.15625,248480.234375,276623.6875,248197.625,-0.2080078125,0.918212890625,-0.232666015625,23.925779342651367,-10.986327171325684,-26.367185592651367,60.0,308.0,1.0,Rest
290451.0,307953.78125,714924.25,662921.3125,424358.0,248282.390625,276482.15625,248131.015625,-0.210205078125,0.921142578125,-0.238037109375,24.444578170776367,-11.016844749450684,-26.489255905151367,60.0,309.0,1.0,Rest
290405.5,307866.40625,714919.0625,662791.5,423961.46875,248243.765625,276423.84375,248134.59375,-0.209716796875,0.924072265625,-0.241455078125,25.054929733276367,-11.138915061950684,-26.611326217651367,60.0,310.0,1.0,Rest
290559.1875,307995.0625,714921.5625,662803.3125,423737.96875,248341.578125,276446.75,248221.046875,-0.20751953125,0.927001953125,-0.242431640625,25.329587936401367,-11.138915061950684,-26.763914108276367,60.0,311.0,1.0,Rest
290601.5625,307986.75,714914.4375,662685.8125,423445.6875,248331.109375,276406.96875,248221.859375,-0.210205078125,0.927978515625,-0.241943359375,25.665281295776367,-11.077879905700684,-26.916501998901367,60.0,312.0,1.0,Rest
290438.65625,307733.75,714911.75,662484.75,423007.40625,248200.578125,276306.375,248163.46875,-0.2119140625,0.927978515625,-0.246337890625,25.726316452026367,-11.077879905700684,-26.824949264526367,60.0,313.0,1.0,Rest
290215.25,307427.59375,714911.75,662284.8125,422503.25,248049.75,276182.90625,248143.09375,-0.216796875,0.927978515625,-0.24658203125,25.787351608276367,-10.894774436950684,-26.794431686401367,60.0,314.0,1.0,Rest
290129.9375,307303.0625,714898.9375,662010.9375,422077.5625,247979.46875,276075.71875,248096.15625,-0.219482421875,0.9306640625,-0.246826171875,25.939939498901367,-10.620116233825684,-26.733396530151367,60.0,315.0,1.0,Rest
290285.59375,307426.0,714899.375,662009.8125,421850.65625,248064.234375,276079.8125,248150.515625,-0.220947265625,0.931640625,-0.249755859375,25.939939498901367,-10.528563499450684,-26.702878952026367,60.0,316.0,1.0,Rest
290367.25,307448.625,714899.8125,661993.0625,421598.90625,248090.609375,276064.8125,248181.625,-0.22412109375,0.932861328125,-0.249267578125,25.970457077026367,-10.284422874450684,-26.611326217651367,60.0,317.0,1.0,Rest
290208.96875,307193.53125,714894.625,661771.625,421164.46875,247955.78125,275960.90625,248138.265625,-0.227294921875,0.936767578125,-0.2529296875,25.695798873901367,-10.101317405700684,-26.550291061401367,60.0,318.0,1.0,Rest
289993.15625,306885.625,714891.375,661532.625,420664.6875,247797.078125,275842.09375,248097.140625,-0.23095703125,0.939208984375,-0.255615234375,25.482175827026367,-9.948729515075684,-26.428220748901367,60.0,319.0,1.0,Rest
289951.03125,306794.78125,714889.5625,661429.5625,420283.90625,247765.96875,275783.96875,248113.40625,-0.23193359375,0.939208984375,-0.259521484375,25.024412155151367,-9.674071311950684,-26.275632858276367,60.0,320.0,1.0,Rest
290077.1875,306894.03125,714885.875,661351.25,420041.96875,247835.078125,275773.875,248143.796875,-0.235595703125,0.937255859375,-0.261474609375,24.658201217651367,-9.521483421325684,-26.031492233276367,60.0,321.0,1.0,Rest
290145.40625,306915.21875,714883.8125,661294.1875,419786.15625,247860.734375,275754.5625,248173.671875,-0.23681640625,0.934326171875,-0.264404296875,24.108884811401367,-9.185790061950684,-25.665281295776367,60.0,322.0,1.0,Rest
289971.6875,306652.0,714874.0,661033.8125,419343.15625,247712.140625,275632.875,248102.234375,-0.241943359375,0.932861328125,-0.263671875,23.651121139526367,-8.850096702575684,-25.482175827026367,60.0,323.0,1.0,Rest
289748.1875,306346.21875,714871.125,660800.3125,418851.40625,247553.1875,275501.625,248049.75,-0.24462890625,0.928466796875,-0.265625,23.284910202026367,-8.636473655700684,-25.177000045776367,60.0,324.0,1.0,Rest
289701.34375,306256.1875,714866.75,660673.4375,418473.3125,247516.703125,275424.75,248055.921875,-0.247314453125,0.924072265625,-0.267333984375,22.796628952026367,-8.392333030700684,-24.932859420776367,60.0,325.0,1.0,Rest
289832.5,306357.125,714860.9375,660567.6875,418235.59375,247578.84375,275404.25,248079.15625,-0.248779296875,0.9208984375,-0.271240234375,22.399900436401367,-8.148192405700684,-24.536130905151367,60.0,326.0,1.0,Rest
289916.0,306381.8125,714860.9375,660514.9375,417996.5,247603.34375,275391.9375,248103.578125,-0.251708984375,0.916015625,-0.272216796875,22.094724655151367,-7.995604991912842,-24.169919967651367,60.0,327.0,1.0,Rest
289788.875,306156.6875,714861.3125,660403.5,417608.65625,247496.671875,275319.40625,248090.875,-0.25341796875,0.911865234375,-0.27734375,21.820066452026367,-7.690429210662842,-23.925779342651367,60.0,328.0,1.0,Rest
289568.84375,305848.21875,714856.3125,660227.125,417125.15625,247341.828125,275200.40625,248053.859375,-0.255859375,0.9072265625,-0.2822265625,21.545408248901367,-7.354735851287842,-23.620603561401367,60.0,329.0,1.0,Rest
289539.5,305765.53125,714855.9375,660160.75,416770.5625,247320.546875,275157.0625,248088.546875,-0.26025390625,0.90625,-0.28466796875,21.362302780151367,-7.110595226287842,-23.315427780151367,60.0,330.0,1.0,Rest
289682.8125,305877.125,714854.75,660080.1875,416554.625,247400.75,275165.71875,248129.953125,-0.263427734375,0.90234375,-0.283447265625,21.209714889526367,-6.774901866912842,-22.888181686401367,60.0,331.0,1.0,Rest
289718.3125,305856.09375,714842.1875,659849.375,416272.1875,247381.4375,275111.4375,248084.703125,-0.26708984375,0.900634765625,-0.2861328125,20.996091842651367,-6.561278820037842,-22.613523483276367,60.0,332.0,1.0,Rest
289577.6875,305624.71875,714839.0625,659690.875,415881.75,247263.59375,275037.0625,248077.90625,-0.27197265625,0.896240234375,-0.2890625,20.751951217651367,-6.347655773162842,-22.277830123901367,60.0,333.0,1.0,Rest
289359.96875,305316.71875,714835.3125,659441.25,415405.65625,247097.46875,274916.375,248011.84375,-0.27294921875,0.89599609375,-0.292236328125,20.538328170776367,-6.011962413787842,-22.003171920776367,60.0,334.0,1.0,Rest
289317.0625,305223.0,714832.1875,659285.5625,415045.28125,247060.109375,274844.125,247992.96875,-0.275390625,0.89404296875,-0.29296875,20.233152389526367,-5.859374523162842,-21.850584030151367,60.0,335.0,1.0,Rest
289474.6875,305348.625,714832.0,659319.375,414847.3125,247149.421875,274852.1875,248053.59375,-0.276123046875,0.89404296875,-0.2958984375,20.019529342651367,-5.523681163787842,-21.392820358276367,60.0,336.0,1.0,Rest
289555.0625,305372.40625,714832.625,659298.875,414618.09375,247176.234375,274840.8125,248088.015625,-0.27685546875,0.892578125,-0.296875,19.836423873901367,-5.310058116912842,-21.026609420776367,60.0,337.0,1.0,Rest
289382.9375,305115.71875,714826.375,659014.5,414203.59375,247037.21875,274731.84375,248033.296875,-0.279541015625,0.89404296875,-0.2998046875,19.531248092651367,-5.004882335662842,-20.690916061401367,60.0,338.0,1.0,Rest
289160.78125,304804.9375,714824.125,658765.5625,413726.6875,246874.21875,274608.625,247970.265625,-0.282470703125,0.896240234375,-0.301513671875,19.226072311401367,-4.669188976287842,-20.263669967651367,60.0,339.0,1.0,Rest
289124.3125,304719.8125,714824.375,658718.375,413378.90625,246847.84375,274553.5625,247991.546875,-0.283935546875,0.89501953125,-0.30224609375,18.829343795776367,-4.364013195037842,-19.653318405151367,60.0,340.0,1.0,Rest
289243.3125,304817.71875,714819.0,658563.25,413154.40625,246905.609375,274540.6875,248020.59375,-0.285888671875,0.89501953125,-0.30419921875,18.554685592651367,-4.089354991912842,-19.134519577026367,60.0,341.0,1.0,Rest
289313.65625,304834.1875,714817.5,658435.125,412921.6875,246918.21875,274523.25,248020.875,-0.288818359375,0.8935546875,-0.30859375,18.188474655151367,-3.845214605331421,-18.585203170776367,60.0,342.0,1.0,Rest
289163.5625,304594.75,714814.125,658315.5,412535.71875,246792.421875,274438.65625,247988.234375,-0.292236328125,0.892333984375,-0.310791015625,17.761228561401367,-3.662109136581421,-18.035886764526367,60.0,343.0,1.0,Rest
288938.875,304294.875,714812.5,658091.1875,412077.40625,246639.4375,274328.6875,247956.3125,-0.295654296875,0.889404296875,-0.311279296875,17.395017623901367,-3.356933355331421,-17.425535202026367,60.0,344.0,1.0,Rest
288860.8125,304183.03125,714806.0625,657880.0625,411708.0625,246584.8125,274252.625,247921.625,-0.298583984375,0.8916015625,-0.309814453125,17.059324264526367,-3.234863042831421,-16.845701217651367,60.0,345.0,1.0,Rest
289012.09375,304311.3125,714807.375,657913.875,411523.71875,246674.84375,274269.34375,247993.78125,-0.30078125,0.892333984375,-0.31298828125,16.632078170776367,-3.204345464706421,-16.387937545776367,60.0,346.0,1.0,Rest
289077.0,304328.21875,714801.5,657845.5,411297.25,246693.71875,274244.90625,248012.546875,-0.3046875,0.89306640625,-0.31494140625,16.174314498901367,-2.899169683456421,-15.991209983825684,60.0,347.0,1.0,Rest
288929.75,304091.84375,714796.375,657647.1875,410922.34375,246573.1875,274148.375,247980.09375,-0.307373046875,0.890869140625,-0.31689453125,15.869139671325684,-2.685546636581421,-15.228270530700684,60.0,348.0,1.0,Rest
288699.4375,303782.9375,714789.75,657384.75,410456.09375,246405.46875,274009.875,247922.078125,-0.30859375,0.888916015625,-0.31787109375,15.228270530700684,-2.410888433456421,-14.770506858825684,60.0,349.0,1.0,Rest
288662.34375,303700.21875,714790.125,657285.5625,410119.03125,246378.640625,273945.9375,247925.375,-0.31005859375,0.887451171875,-0.3173828125,14.923094749450684,-2.166747808456421,-14.160155296325684,60.0,350.0,1.0,Rest
288800.09375,303814.59375,714788.8125,657216.875,409923.78125,246458.578125,273947.375,247967.765625,-0.3125,0.888427734375,-0.322265625,14.678954124450684,-2.044677495956421,-13.824461936950684,60.0,351.0,1.0,Rest
288893.09375,303858.21875,714787.375,657170.375,409720.09375,246489.421875,273942.46875,248008.796875,-0.314453125,0.890380859375,-0.323974609375,14.251708030700684,-1.8615721464157104,-13.336180686950684,60.0,352.0,1.0,Rest
288737.0,303619.21875,714779.875,656958.75,409339.59375,246356.375,273842.6875,247958.015625,-0.314697265625,0.891357421875,-0.322998046875,13.916014671325684,-1.7700194120407104,-12.847899436950684,60.0,353.0,1.0,Rest
288533.6875,303332.9375,714777.6875,656713.125,408906.125,246214.21875,273734.125,247901.875,-0.31591796875,0.891845703125,-0.32177734375,13.427733421325684,-1.7700194120407104,-12.298583030700684,60.0,354.0,1.0,Rest
288502.75,303253.8125,714777.625,656633.6875,408585.625,246190.96875,273681.5625,247905.171875,-0.314697265625,0.8955078125,-0.325439453125,12.817381858825684,-1.6784666776657104,-11.749266624450684,60.0,355.0,1.0,Rest
288639.53125,303365.59375,714775.9375,656569.1875,408392.125,246260.265625,273672.34375,247940.84375,-0.314208984375,0.8974609375,-0.3251953125,12.298583030700684,-1.6174315214157104,-11.108397483825684,60.0,356.0,1.0,Rest
288739.65625,303395.25,714774.375,656507.75,408176.21875,246283.953125,273655.1875,247963.65625,-0.3134765625,0.894775390625,-0.325927734375,11.566161155700684,-1.5258787870407104,-10.559081077575684,60.0,357.0,1.0,Rest
288632.5625,303168.78125,714773.5,656325.3125,407795.71875,246172.640625,273580.71875,247933.96875,-0.314697265625,0.892333984375,-0.32275390625,10.986327171325684,-1.4343260526657104,-9.979247093200684,60.0,358.0,1.0,Rest
288406.1875,302829.84375,714763.9375,656059.375,407301.28125,245990.96875,273423.1875,247858.78125,-0.31494140625,0.892333984375,-0.327880859375,10.314940452575684,-1.2817381620407104,-9.307860374450684,60.0,359.0,1.0,Rest
288391.0625,302749.5625,714765.75,655938.4375,406970.46875,245960.75,273353.71875,247874.515625,-0.31591796875,0.892578125,-0.33056640625,9.796141624450684,-1.0681151151657104,-8.911131858825684,60.0,360.0,1.0,Rest
288528.5,302865.09375,714765.25,655873.375,406774.5,246029.0625,273337.4375,247910.71875,-0.320068359375,0.891357421875,-0.3330078125,9.338377952575684,-1.0070799589157104,-8.300780296325684,60.0,361.0,1.0,Rest
288600.03125,302898.59375,714765.375,655849.5,406572.09375,246062.234375,273330.09375,247942.640625,-0.318115234375,0.891357421875,-0.333984375,8.789061546325684,-0.7934569716453552,-7.690429210662842,60.0,362.0,1.0,Rest
288445.34375,302665.0625,714760.1875,655681.125,406211.78125,245943.9375,273257.875,247909.015625,-0.320556640625,0.891357421875,-0.3349609375,8.300780296325684,-0.6408690810203552,-7.080077648162842,60.0,363.0,1.0,Rest
288216.90625,302353.9375,714758.375,655405.5625,405769.65625,245789.1875,273145.84375,247854.390625,-0.321533203125,0.892333984375,-0.33447265625,7.812499523162842,-0.4882812201976776,-6.530761241912842,60.0,364.0,1.0,Rest
288171.75,302254.0625,714757.3125,655324.0625,405431.96875,245761.546875,273086.75,247869.859375,-0.321533203125,0.892578125,-0.332275390625,7.324218273162842,-0.4272460639476776,-6.134032726287842,60.0,365.0,1.0,Rest
288295.3125,302350.375,714752.6875,655256.0,405225.34375,245824.3125,273066.71875,247876.65625,-0.321044921875,0.894287109375,-0.33154296875,6.927489757537842,-0.3356933295726776,-5.554198741912842,60.0,366.0,1.0,Rest
288377.21875,302374.3125,714747.9375,655089.9375,405012.1875,245849.0,273036.75,247886.765625,-0.3212890625,0.892822265625,-0.32958984375,6.347655773162842,-0.2441406100988388,-5.035399913787842,60.0,367.0,1.0,Rest
288293.34375,302198.28125,714753.3125,655040.3125,404697.5,245784.171875,272979.71875,247909.296875,-0.321533203125,0.893310546875,-0.329833984375,5.737304210662842,-0.1831054538488388,-4.486083507537842,60.0,368.0,1.0,Rest
288059.46875,301895.71875,714745.625,654824.875,404255.8125,245628.421875,272855.34375,247847.15625,-0.322265625,0.896728515625,-0.32861328125,5.249022960662842,-0.0915527269244194,-3.753661870956421,60.0,369.0,1.0,Rest
287976.125,301780.46875,714742.6875,654583.1875,403908.65625,245579.796875,272780.96875,247823.015625,-0.322021484375,0.89892578125,-0.328125,4.608153820037842,0.0,-3.021239995956421,60.0,370.0,1.0,Rest
288094.78125,301873.28125,714740.1875,654534.9375,403704.875,245642.203125,272764.15625,247855.015625,-0.321533203125,0.90283203125,-0.32763671875,4.058837413787842,0.0,-2.288818120956421,60.0,371.0,1.0,Rest
288185.875,301910.46875,714741.0625,654541.625,403506.84375,245676.4375,272753.0625,247894.984375,-0.3203125,0.90380859375,-0.328125,3.509521245956421,-0.0915527269244194,-1.6479490995407104,60.0,372.0,1.0,Rest
288010.03125,301653.15625,714732.1875,654341.0,403121.96875,245539.640625,272641.3125,247844.296875,-0.32080078125,0.9033203125,-0.326904296875,2.960204839706421,0.0,-0.9155272841453552,60.0,373.0,1.0,Rest
287761.125,301321.65625,714727.125,654033.5625,402654.71875,245372.8125,272503.90625,247764.09375,-0.319091796875,0.905517578125,-0.325439453125,2.227782964706421,-0.1831054538488388,-0.1525878757238388,60.0,374.0,1.0,Rest
287709.96875,301222.03125,714729.625,653955.1875,402317.28125,245348.765625,272446.78125,247780.8125,-0.318603515625,0.905517578125,-0.3212890625,1.6784666776657104,-0.0610351525247097,0.6408690810203552,60.0,375.0,1.0,Rest
287830.84375,301324.25,714727.9375,653906.9375,402117.1875,245422.796875,272445.0625,247831.5,-0.32080078125,0.906982421875,-0.320068359375,1.0681151151657104,-0.1831054538488388,1.3427733182907104,60.0,376.0,1.0,Rest
287928.03125,301377.15625,714731.3125,653945.3125,401934.8125,245473.3125,272455.15625,247890.953125,-0.322265625,0.90673828125,-0.32080078125,0.5493163466453552,-0.3051757514476776,2.258300542831421,60.0,377.0,1.0,Rest
287769.78125,301133.625,714722.375,653668.5625,401556.34375,245339.015625,272344.9375,247819.703125,-0.322998046875,0.906005859375,-0.320556640625,-0.03051757626235485,-0.4272460639476776,2.960204839706421,60.0,378.0,1.0,Rest
287505.84375,300793.59375,714712.25,653348.3125,401084.5625,245152.421875,272190.875,247726.984375,-0.321533203125,0.904541015625,-0.31787109375,-0.6103515028953552,-0.6408690810203552,3.784179449081421,60.0,379.0,1.0,Rest
287447.03125,300689.09375,714713.6875,653224.5625,400752.03125,245112.90625,272123.125,247732.984375,-0.318359375,0.90234375,-0.32080078125,-1.1596678495407104,-0.7629393935203552,4.455565929412842,60.0,380.0,1.0,Rest
287593.90625,300815.25,714716.9375,653276.3125,400587.625,245205.4375,272142.6875,247803.34375,-0.316162109375,0.900146484375,-0.323486328125,-1.5869139432907104,-0.9155272841453552,5.157470226287842,60.0,381.0,1.0,Rest
287684.5625,300864.875,714717.6875,653286.0,400401.40625,245245.140625,272139.125,247842.953125,-0.31640625,0.897705078125,-0.322021484375,-2.044677495956421,-1.0070799589157104,5.828856945037842,60.0,382.0,1.0,Rest
287501.84375,300606.3125,714707.0625,652900.625,400015.0625,245102.359375,272023.0625,247752.640625,-0.314208984375,0.8984375,-0.320068359375,-2.380370855331421,-1.1291502714157104,6.317138195037842,60.0,383.0,1.0,Rest
287270.34375,300299.8125,714707.875,652708.6875,399573.9375,244951.4375,271905.0625,247695.34375,-0.31103515625,0.89501953125,-0.32080078125,-2.716064214706421,-1.3732908964157104,6.927489757537842,60.0,384.0,1.0,Rest
287220.28125,300208.4375,714708.5,652640.1875,399244.46875,244924.890625,271849.78125,247711.078125,-0.309814453125,0.8935546875,-0.315673828125,-3.082275152206421,-1.4953612089157104,7.263183116912842,60.0,385.0,1.0,Rest
287350.5625,300320.375,714707.1875,652584.4375,399060.28125,245008.921875,271854.53125,247763.734375,-0.306396484375,0.89453125,-0.31689453125,-3.509521245956421,-1.7089842557907104,7.812499523162842,60.0,386.0,1.0,Rest
287455.25,300383.15625,714711.625,652607.3125,398886.5625,245060.328125,271863.5625,247809.421875,-0.302734375,0.896484375,-0.31396484375,-3.906249761581421,-1.8920897245407104,8.422850608825684,60.0,387.0,1.0,Rest
287299.40625,300153.8125,714706.375,652419.8125,398529.46875,244938.65625,271768.53125,247757.5625,-0.302734375,0.89501953125,-0.315185546875,-4.241942882537842,-2.014159917831421,8.941649436950684,60.0,388.0,1.0,Rest
287036.03125,299824.34375,714698.9375,652079.875,398074.21875,244761.09375,271625.90625,247667.0,-0.297607421875,0.89501953125,-0.31396484375,-4.608153820037842,-2.105712652206421,9.429930686950684,60.0,389.0,1.0,Rest
286965.3125,299722.6875,714695.875,651904.5,397744.21875,244719.515625,271558.15625,247647.234375,-0.29833984375,0.892578125,-0.315185546875,-4.913329601287842,-2.227782964706421,9.887694358825684,60.0,390.0,1.0,Rest
287134.1875,299875.75,714702.3125,651954.4375,397606.15625,244833.15625,271597.3125,247741.203125,-0.296875,0.891357421875,-0.31494140625,-5.157470226287842,-2.319335699081421,10.345458030700684,60.0,391.0,1.0,Rest
287217.59375,299920.09375,714698.5,651930.4375,397421.8125,244863.46875,271586.6875,247772.140625,-0.293701171875,0.892578125,-0.315185546875,-5.493163585662842,-2.410888433456421,10.528563499450684,60.0,392.0,1.0,Rest
287070.4375,299693.46875,714691.625,651680.4375,397073.3125,244740.53125,271489.5,247702.140625,-0.292236328125,0.89306640625,-0.31591796875,-5.706786632537842,-2.471923589706421,10.711668968200684,60.0,393.0,1.0,Rest
286860.25,299405.21875,714692.25,651483.5625,396670.25,244604.09375,271389.71875,247661.984375,-0.29248046875,0.8916015625,-0.31396484375,-6.011962413787842,-2.502441167831421,10.894774436950684,60.0,394.0,1.0,Rest
286805.96875,299310.625,714690.6875,651398.25,396360.375,244573.6875,271334.53125,247670.21875,-0.291748046875,0.891845703125,-0.313232421875,-6.286620616912842,-2.716064214706421,10.864256858825684,60.0,395.0,1.0,Rest
286971.03125,299453.40625,714693.3125,651427.9375,396221.25,244674.8125,271353.59375,247735.921875,-0.287841796875,0.892333984375,-0.311767578125,-6.591796398162842,-2.868652105331421,10.986327171325684,60.0,396.0,1.0,Rest
287056.84375,299503.09375,714690.1875,651361.0,396052.90625,244708.96875,271332.65625,247757.46875,-0.288818359375,0.89111328125,-0.312255859375,-6.744384288787842,-2.960204839706421,11.077879905700684,60.0,397.0,1.0,Rest
286927.75,299296.65625,714687.5,651097.375,395735.25,244608.65625,271254.34375,247710.8125,-0.286865234375,0.889892578125,-0.308349609375,-6.896972179412842,-3.051757574081421,10.986327171325684,60.0,398.0,1.0,Rest
286711.28125,299006.53125,714682.125,650897.5625,395327.90625,244464.890625,271144.90625,247663.953125,-0.287353515625,0.891357421875,-0.3076171875,-6.988524913787842,-3.143310308456421,10.894774436950684,60.0,399.0,1.0,Rest
286668.28125,298925.09375,714682.3125,650857.4375,395030.8125,244436.546875,271097.96875,247668.421875,-0.288330078125,0.89501953125,-0.305908203125,-7.141112804412842,-3.143310308456421,10.711668968200684,60.0,400.0,1.0,Rest
286801.59375,299046.96875,714679.4375,650740.3125,394873.34375,244512.8125,271102.4375,247700.34375,-0.288330078125,0.89599609375,-0.30517578125,-7.324218273162842,-3.265380620956421,10.650633811950684,60.0,401.0,1.0,Rest
286910.3125,299118.75,714681.0625,650668.875,394729.84375,244569.3125,271116.84375,247740.40625,-0.287109375,0.89599609375,-0.30517578125,-7.537841320037842,-3.479003667831421,10.437010765075684,60.0,402.0,1.0,Rest
286779.0625,298918.03125,714674.625,650479.25,394410.9375,244463.359375,271032.71875,247682.640625,-0.2861328125,0.8955078125,-0.303466796875,-7.690429210662842,-3.723144292831421,10.253905296325684,60.0,403.0,1.0,Rest
286574.9375,298640.59375,714674.8125,650287.1875,394024.09375,244328.359375,270926.65625,247635.078125,-0.28564453125,0.895751953125,-0.2998046875,-7.904052257537842,-3.997802495956421,9.948729515075684,60.0,404.0,1.0,Rest
286543.65625,298570.25,714676.4375,650264.9375,393741.03125,244316.828125,270881.78125,247649.65625,-0.2841796875,0.89697265625,-0.301025390625,-7.995604991912842,-4.150390148162842,9.582518577575684,60.0,405.0,1.0,Rest
286681.0,298703.71875,714676.75,650254.5625,393595.09375,244407.390625,270891.09375,247693.640625,-0.28125,0.897216796875,-0.29931640625,-8.148192405700684,-4.394530773162842,9.277342796325684,60.0,406.0,1.0,Rest
286759.125,298753.875,714670.875,650065.3125,393422.71875,244438.515625,270870.78125,247691.3125,-0.27880859375,0.899169921875,-0.29736328125,-8.361815452575684,-4.608153820037842,9.033202171325684,60.0,407.0,1.0,Rest
286632.875,298556.09375,714663.0,649869.25,393112.125,244341.140625,270793.375,247649.296875,-0.274658203125,0.9013671875,-0.294921875,-8.453368186950684,-4.638671398162842,8.636473655700684,60.0,408.0,1.0,Rest
286448.875,298302.71875,714665.9375,649733.4375,392741.71875,244226.703125,270712.28125,247627.921875,-0.271240234375,0.9052734375,-0.294677734375,-8.575438499450684,-4.669188976287842,8.300780296325684,60.0,409.0,1.0,Rest
286402.84375,298229.59375,714669.0625,649640.0625,392456.25,244210.34375,270670.59375,247648.75,-0.269287109375,0.904541015625,-0.294921875,-8.850096702575684,-4.760741710662842,7.995604991912842,60.0,410.0,1.0,Rest
286523.71875,298347.53125,714663.8125,649566.25,392294.78125,244282.5,270663.1875,247661.453125,-0.26513671875,0.905029296875,-0.292236328125,-8.911131858825684,-4.882812023162842,7.659911632537842,60.0,411.0,1.0,Rest
286614.09375,298411.28125,714661.0625,649440.9375,392138.84375,244325.765625,270653.625,247657.875,-0.262451171875,0.904052734375,-0.291259765625,-9.124754905700684,-4.821776866912842,7.324218273162842,60.0,412.0,1.0,Rest
286500.125,298232.90625,714661.9375,649309.25,391849.6875,244245.125,270591.75,247652.0625,-0.26025390625,0.902099609375,-0.291259765625,-9.307860374450684,-4.852294445037842,7.202147960662842,60.0,413.0,1.0,Rest
286267.84375,297941.09375,714657.4375,649102.4375,391445.5,244094.375,270473.8125,247577.40625,-0.25830078125,0.903564453125,-0.29248046875,-9.399413108825684,-4.791259288787842,6.958007335662842,60.0,414.0,1.0,Rest
286226.34375,297875.09375,714660.9375,648990.0,391165.65625,244080.875,270434.03125,247594.390625,-0.255859375,0.900146484375,-0.29150390625,-9.490965843200684,-4.760741710662842,6.683349132537842,60.0,415.0,1.0,Rest
286372.625,298014.03125,714658.4375,648992.5625,391029.46875,244175.203125,270442.96875,247645.359375,-0.254638671875,0.897705078125,-0.28955078125,-9.521483421325684,-4.577636241912842,6.408690929412842,60.0,416.0,1.0,Rest
286475.4375,298086.28125,714654.9375,648920.1875,390887.3125,244223.484375,270440.46875,247653.578125,-0.25537109375,0.898681640625,-0.28955078125,-9.613036155700684,-4.425048351287842,6.072997570037842,60.0,417.0,1.0,Rest
286370.28125,297911.75,714652.1875,648779.4375,390606.78125,244141.328125,270382.71875,247644.109375,-0.256591796875,0.899658203125,-0.287109375,-9.674071311950684,-4.272460460662842,5.920409679412842,60.0,418.0,1.0,Rest
286145.15625,297624.125,714643.5,648482.3125,390213.09375,243987.71875,270270.96875,247573.03125,-0.256103515625,0.89990234375,-0.28662109375,-9.643553733825684,-4.180907726287842,5.676269054412842,60.0,419.0,1.0,Rest
286096.625,297550.09375,714644.3125,648370.3125,389932.28125,243958.484375,270226.25,247578.125,-0.256103515625,0.8994140625,-0.2861328125,-9.643553733825684,-4.058837413787842,5.371093273162842,60.0,420.0,1.0,Rest
286236.28125,297686.28125,714642.8125,648379.375,389801.84375,244046.453125,270239.84375,247615.59375,-0.257080078125,0.8974609375,-0.283935546875,-9.613036155700684,-3.997802495956421,5.096435070037842,60.0,421.0,1.0,Rest
286350.0,297774.5,714643.75,648334.8125,389677.28125,244107.078125,270254.6875,247645.359375,-0.256591796875,0.896484375,-0.281494140625,-9.613036155700684,-3.997802495956421,4.974364757537842,60.0,422.0,1.0,Rest
286249.40625,297610.625,714644.375,648155.75,389406.21875,244029.46875,270200.96875,247624.96875,-0.258544921875,0.89501953125,-0.27685546875,-9.613036155700684,-3.814697027206421,4.577636241912842,60.0,423.0,1.0,Rest
286019.46875,297325.25,714639.0625,647935.625,389014.875,243875.25,270083.5625,247550.140625,-0.2587890625,0.89599609375,-0.2763671875,-9.582518577575684,-3.814697027206421,4.302978038787842,60.0,424.0,1.0,Rest
285975.65625,297256.03125,714641.75,647890.75,388742.375,243852.09375,270042.53125,247563.734375,-0.25927734375,0.895751953125,-0.275146484375,-9.460448265075684,-3.723144292831421,3.875732183456421,60.0,425.0,1.0,Rest
286121.75,297395.4375,714640.375,647809.625,388617.375,243941.9375,270060.0625,247604.5,-0.26171875,0.89404296875,-0.273681640625,-9.490965843200684,-3.845214605331421,3.570556402206421,60.0,426.0,1.0,Rest
286231.09375,297479.75,714641.125,647734.75,388495.0625,243998.09375,270077.125,247647.328125,-0.26513671875,0.8955078125,-0.272705078125,-9.429930686950684,-3.784179449081421,3.143310308456421,60.0,427.0,1.0,Rest
286102.625,297291.4375,714633.9375,647574.25,388200.90625,243892.046875,270002.65625,247594.84375,-0.26513671875,0.894287109375,-0.2744140625,-9.399413108825684,-3.997802495956421,2.777099370956421,60.0,428.0,1.0,Rest
285879.53125,297010.53125,714630.8125,647368.9375,387820.5625,243747.484375,269903.40625,247533.78125,-0.267333984375,0.894775390625,-0.27392578125,-9.185790061950684,-4.028319835662842,2.502441167831421,60.0,429.0,1.0,Rest
285841.8125,296952.15625,714636.1875,647332.8125,387563.4375,243739.890625,269878.0,247567.578125,-0.267333984375,0.89501953125,-0.27197265625,-8.972167015075684,-4.058837413787842,2.105712652206421,60.0,430.0,1.0,Rest
285975.75,297091.4375,714633.6875,647275.625,387437.46875,243826.703125,269890.625,247604.046875,-0.267578125,0.8955078125,-0.268798828125,-8.972167015075684,-4.272460460662842,1.7700194120407104,60.0,431.0,1.0,Rest
286078.90625,297167.875,714632.875,647213.125,387315.78125,243875.78125,269897.9375,247624.078125,-0.26806640625,0.897705078125,-0.269287109375,-8.819579124450684,-4.364013195037842,1.5258787870407104,60.0,432.0,1.0,Rest
285969.75,296993.8125,714631.5,647106.5625,387043.90625,243786.546875,269837.5,247596.359375,-0.2685546875,0.897705078125,-0.267822265625,-8.819579124450684,-4.608153820037842,1.3122557401657104,60.0,433.0,1.0,Rest
285728.96875,296690.0,714621.8125,646837.25,386645.3125,243617.125,269713.6875,247519.03125,-0.27001953125,0.895263671875,-0.26513671875,-8.697508811950684,-4.791259288787842,1.0681151151657104,60.0,434.0,1.0,Rest
285666.40625,296597.1875,714617.75,646631.8125,386359.84375,243574.65625,269653.0625,247490.6875,-0.26806640625,0.8955078125,-0.26171875,-8.697508811950684,-4.821776866912842,0.7019042372703552,60.0,435.0,1.0,Rest
285831.34375,296763.3125,714621.625,646677.375,386261.5,243690.0,269689.375,247562.21875,-0.265869140625,0.8955078125,-0.262939453125,-8.514403343200684,-4.882812023162842,0.4272460639476776,60.0,436.0,1.0,Rest
285937.21875,296853.0,714625.0,646655.125,386146.34375,243755.890625,269712.0625,247603.421875,-0.26904296875,0.897216796875,-0.263671875,-8.453368186950684,-5.035399913787842,0.1831054538488388,60.0,437.0,1.0,Rest
285804.15625,296664.4375,714621.5,646470.6875,385856.5625,243654.859375,269640.71875,247559.703125,-0.269287109375,0.896728515625,-0.260986328125,-8.148192405700684,-5.249022960662842,-0.03051757626235485,60.0,438.0,1.0,Rest
285581.5625,296379.21875,714619.375,646277.375,385479.71875,243509.65625,269538.90625,247498.90625,-0.267578125,0.8974609375,-0.259765625,-7.934569835662842,-5.371093273162842,0.0610351525247097,60.0,439.0,1.0,Rest
285537.125,296310.125,714619.875,646186.1875,385212.125,243484.359375,269490.875,247504.453125,-0.268310546875,0.89990234375,-0.2578125,-7.812499523162842,-5.462646007537842,0.0,60.0,440.0,1.0,Rest
285665.59375,296444.0625,714616.875,646143.375,385083.28125,243563.9375,269495.8125,247537.796875,-0.26806640625,0.900390625,-0.25830078125,-7.751464366912842,-5.554198741912842,-0.0610351525247097,60.0,441.0,1.0,Rest
285786.375,296540.4375,714620.25,646136.75,384980.28125,243634.390625,269517.875,247588.140625,-0.26904296875,0.901611328125,-0.260498046875,-7.751464366912842,-5.706786632537842,-0.1220703050494194,60.0,442.0,1.0,Rest
285649.59375,296342.125,714614.625,645967.5625,384687.65625,243526.375,269433.125,247524.75,-0.2685546875,0.904296875,-0.2578125,-7.568358898162842,-5.920409679412842,-0.2136230319738388,60.0,443.0,1.0,Rest
285436.25,296067.71875,714615.625,645762.75,384316.625,243384.40625,269332.0,247470.390625,-0.26904296875,0.905029296875,-0.25537109375,-7.385253429412842,-5.981444835662842,-0.0915527269244194,60.0,444.0,1.0,Rest
285360.09375,295977.34375,714612.375,645565.0,384032.75,243346.9375,269277.125,247468.875,-0.2705078125,0.9052734375,-0.25390625,-7.293700695037842,-6.072997570037842,0.0,60.0,445.0,1.0,Rest
285503.21875,296126.125,714614.1875,645607.4375,383923.6875,243449.9375,269304.46875,247516.875,-0.269287109375,0.90380859375,-0.251220703125,-7.324218273162842,-6.195067882537842,0.0,60.0,446.0,1.0,Rest
285594.78125,296204.625,714611.5,645585.4375,383798.875,243494.90625,269303.84375,247533.875,-0.269287109375,0.90283203125,-0.252685546875,-7.202147960662842,-6.378173351287842,0.1831054538488388,60.0,447.0,1.0,Rest
285443.40625,296004.25,714605.625,645339.5,383504.8125,243379.65625,269216.40625,247474.328125,-0.2705078125,0.899658203125,-0.25341796875,-7.080077648162842,-6.530761241912842,0.3356933295726776,60.0,448.0,1.0,Rest
285252.4375,295751.0625,714611.6875,645208.5,383161.5,243264.15625,269139.6875,247458.953125,-0.27197265625,0.896728515625,-0.251953125,-7.049560070037842,-6.622313976287842,0.4577636420726776,60.0,449.0,1.0,Rest
285199.875,295669.59375,714613.5625,645145.5,382891.03125,243239.5625,269094.71875,247465.46875,-0.27099609375,0.893310546875,-0.251220703125,-6.927489757537842,-6.744384288787842,0.6713866591453552,60.0,450.0,1.0,Rest
285323.25,295794.15625,714608.0,645073.25,382755.65625,243310.375,269095.53125,247485.953125,-0.271240234375,0.890869140625,-0.252197265625,-6.591796398162842,-6.927489757537842,0.8850097060203552,60.0,451.0,1.0,Rest
285409.0,295857.8125,714600.75,644965.25,382620.75,243343.71875,269088.1875,247495.421875,-0.271728515625,0.89111328125,-0.2490234375,-6.195067882537842,-7.019042491912842,0.9765624403953552,60.0,452.0,1.0,Rest
285302.40625,295690.0,714602.125,644875.9375,382366.75,243261.109375,269036.25,247479.234375,-0.271240234375,0.888916015625,-0.249755859375,-5.859374523162842,-7.293700695037842,1.0375975370407104,60.0,453.0,1.0,Rest
285082.3125,295416.125,714602.75,644707.9375,382003.75,243116.453125,268942.375,247434.359375,-0.271240234375,0.8916015625,-0.248291015625,-5.554198741912842,-7.324218273162842,1.4038084745407104,60.0,454.0,1.0,Rest
284998.96875,295319.75,714598.1875,644516.25,381718.71875,243061.90625,268881.5625,247408.4375,-0.269287109375,0.894287109375,-0.247802734375,-5.249022960662842,-7.354735851287842,1.6784666776657104,60.0,455.0,1.0,Rest
285149.25,295466.90625,714599.6875,644547.625,381622.4375,243158.46875,268913.75,247470.5625,-0.268310546875,0.896240234375,-0.24755859375,-4.943847179412842,-7.537841320037842,1.8920897245407104,60.0,456.0,1.0,Rest
285259.15625,295546.59375,714599.9375,644519.375,381516.125,243211.3125,268927.34375,247500.703125,-0.265625,0.8994140625,-0.248291015625,-4.516601085662842,-7.568358898162842,2.197265386581421,60.0,457.0,1.0,Rest
285161.15625,295376.0,714600.125,644379.1875,381256.125,243119.125,268867.4375,247467.0,-0.26318359375,0.901611328125,-0.245361328125,-4.302978038787842,-7.598876476287842,2.471923589706421,60.0,458.0,1.0,Rest
284931.03125,295087.46875,714595.6875,644175.1875,380880.375,242963.46875,268752.65625,247406.828125,-0.263671875,0.904541015625,-0.244873046875,-3.997802495956421,-7.415771007537842,2.655029058456421,60.0,459.0,1.0,Rest
284887.9375,295019.25,714598.375,644088.625,380624.46875,242938.703125,268712.59375,247411.921875,-0.26611328125,0.90771484375,-0.242919921875,-3.845214605331421,-7.476806163787842,2.929687261581421,60.0,460.0,1.0,Rest
285026.40625,295153.09375,714595.0625,644016.9375,380512.90625,243016.578125,268726.375,247434.53125,-0.26708984375,0.909423828125,-0.2431640625,-3.753661870956421,-7.415771007537842,3.051757574081421,60.0,461.0,1.0,Rest
285129.78125,295235.625,714591.8125,643979.875,380404.96875,243061.46875,268737.53125,247466.71875,-0.266845703125,0.91259765625,-0.242431640625,-3.784179449081421,-7.415771007537842,3.234863042831421,60.0,462.0,1.0,Rest
285002.46875,295051.34375,714587.6875,643831.375,380137.3125,242960.25,268671.03125,247426.484375,-0.264404296875,0.913330078125,-0.240478515625,-3.845214605331421,-7.385253429412842,3.387450933456421,60.0,463.0,1.0,Rest
284796.1875,294784.46875,714590.5,643642.75,379787.4375,242825.96875,268587.4375,247400.65625,-0.26171875,0.9150390625,-0.244140625,-3.967284917831421,-7.293700695037842,3.509521245956421,60.0,464.0,1.0,Rest
284742.65625,294706.25,714590.5,643558.875,379527.625,242794.859375,268545.84375,247401.640625,-0.259521484375,0.916259765625,-0.24365234375,-3.967284917831421,-7.080077648162842,3.723144292831421,60.0,465.0,1.0,Rest
284891.6875,294856.0,714587.4375,643554.75,379421.15625,242884.4375,268569.0,247438.296875,-0.2568359375,0.916259765625,-0.2421875,-4.150390148162842,-7.019042491912842,3.845214605331421,60.0,466.0,1.0,Rest
284976.71875,294919.5625,714582.4375,643467.5,379298.65625,242916.0,268564.8125,247442.3125,-0.25634765625,0.91650390625,-0.245361328125,-4.119872570037842,-6.896972179412842,4.028319835662842,60.0,467.0,1.0,Rest
284858.25,294742.375,714582.0625,643277.5,379040.09375,242820.78125,268503.65625,247404.140625,-0.25341796875,0.915283203125,-0.24609375,-4.089354991912842,-6.683349132537842,4.028319835662842,60.0,468.0,1.0,Rest
284662.875,294494.53125,714586.125,643186.125,378706.15625,242694.453125,268426.9375,247392.15625,-0.2529296875,0.9150390625,-0.244384765625,-4.028319835662842,-6.439208507537842,4.058837413787842,60.0,469.0,1.0,Rest
284601.1875,294415.03125,714585.1875,643090.8125,378449.84375,242664.5,268377.5,247393.59375,-0.25244140625,0.91357421875,-0.2451171875,-4.089354991912842,-6.103515148162842,4.211425304412842,60.0,470.0,1.0,Rest
284711.0,294537.8125,714581.5625,643012.9375,378332.625,242741.921875,268377.78125,247413.171875,-0.249267578125,0.91162109375,-0.24169921875,-3.967284917831421,-5.676269054412842,4.302978038787842,60.0,471.0,1.0,Rest
284807.8125,294616.21875,714579.125,642899.3125,378218.0,242790.828125,268373.375,247418.984375,-0.245361328125,0.908447265625,-0.241455078125,-3.875732183456421,-5.340575695037842,4.425048351287842,60.0,472.0,1.0,Rest
284702.125,294459.75,714577.4375,642782.8125,377967.21875,242716.53125,268313.40625,247400.65625,-0.246337890625,0.906005859375,-0.2412109375,-3.723144292831421,-4.974364757537842,4.516601085662842,60.0,473.0,1.0,Rest
284494.4375,294192.34375,714576.25,642598.0,377616.28125,242584.390625,268214.78125,247353.171875,-0.248291015625,0.907470703125,-0.23828125,-3.631591558456421,-4.486083507537842,4.577636241912842,60.0,474.0,1.0,Rest
284448.40625,294122.3125,714578.9375,642581.125,377368.0,242566.234375,268175.875,247369.8125,-0.248291015625,0.9072265625,-0.23876953125,-3.540038824081421,-4.150390148162842,4.730224132537842,60.0,475.0,1.0,Rest
284581.25,294265.46875,714579.125,642556.0625,377269.9375,242656.265625,268195.09375,247416.921875,-0.249755859375,0.908203125,-0.240966796875,-3.448486089706421,-3.692626714706421,4.882812023162842,60.0,476.0,1.0,Rest
284681.75,294353.625,714575.3125,642491.1875,377173.71875,242701.875,268197.96875,247436.765625,-0.249755859375,0.910400390625,-0.240966796875,-3.356933355331421,-3.295898199081421,4.852294445037842,60.0,477.0,1.0,Rest
284592.25,294209.78125,714578.0625,642364.375,376952.0,242629.453125,268148.53125,247420.6875,-0.247802734375,0.91162109375,-0.242431640625,-3.265380620956421,-3.021239995956421,4.852294445037842,60.0,478.0,1.0,Rest
284372.125,293934.75,714576.625,642198.625,376602.40625,242482.546875,268045.25,247373.734375,-0.248779296875,0.911376953125,-0.24072265625,-3.143310308456421,-2.563476324081421,4.882812023162842,60.0,479.0,1.0,Rest
284283.1875,293826.3125,714568.3125,642028.75,376322.3125,242426.234375,267972.3125,247333.859375,-0.247802734375,0.9111328125,-0.240234375,-2.990722417831421,-2.136230230331421,5.004882335662842,60.0,480.0,1.0,Rest
284444.1875,293993.21875,714572.3125,642049.0625,376249.71875,242534.953125,268010.75,247387.0625,-0.245361328125,0.912109375,-0.23876953125,-3.143310308456421,-1.7395018339157104,4.943847179412842,60.0,481.0,1.0,Rest
284555.875,294089.875,714568.9375,641996.875,376158.0625,242585.015625,268015.65625,247409.765625,-0.242431640625,0.91455078125,-0.237548828125,-3.051757574081421,-1.3122557401657104,5.035399913787842,60.0,482.0,1.0,Rest
284468.6875,293941.375,714568.6875,641902.1875,375928.28125,242508.84375,267965.34375,247402.625,-0.239501953125,0.91748046875,-0.24072265625,-2.960204839706421,-0.8850097060203552,5.126952648162842,60.0,483.0,1.0,Rest
284243.40625,293655.34375,714566.875,641661.5625,375577.90625,242355.421875,267859.125,247338.6875,-0.238037109375,0.91796875,-0.242431640625,-2.960204839706421,-0.3662109076976776,5.218505382537842,60.0,484.0,1.0,Rest
284192.78125,293576.40625,714568.6875,641554.8125,375337.03125,242326.984375,267820.9375,247331.453125,-0.23486328125,0.9189453125,-0.24169921875,-3.051757574081421,0.1831054538488388,5.432128429412842,60.0,485.0,1.0,Rest
284348.1875,293732.875,714569.8125,641579.875,375259.4375,242428.640625,267857.78125,247393.859375,-0.2353515625,0.920654296875,-0.23828125,-3.051757574081421,0.7629393935203552,5.584716320037842,60.0,486.0,1.0,Rest
284471.375,293832.125,714569.5625,641546.3125,375177.90625,242489.890625,267878.6875,247409.328125,-0.23291015625,0.92041015625,-0.23974609375,-3.082275152206421,1.2207030057907104,5.706786632537842,60.0,487.0,1.0,Rest
284353.625,293656.53125,714565.75,641454.3125,374928.28125,242395.109375,267815.40625,247371.78125,-0.2294921875,0.919189453125,-0.241943359375,-3.295898199081421,1.9226073026657104,5.889892101287842,60.0,488.0,1.0,Rest
284101.3125,293351.90625,714558.375,641138.625,374548.46875,242222.46875,267688.875,247288.8125,-0.2236328125,0.91845703125,-0.244140625,-3.387450933456421,2.593993902206421,6.134032726287842,60.0,489.0,1.0,Rest
284043.3125,293280.21875,714560.8125,641082.125,374300.1875,242198.59375,267645.6875,247303.46875,-0.22119140625,0.91845703125,-0.24462890625,-3.326415777206421,3.356933355331421,6.378173351287842,60.0,490.0,1.0,Rest
284179.5625,293432.09375,714563.125,641015.0,374210.34375,242295.6875,267665.625,247341.203125,-0.220458984375,0.915771484375,-0.24755859375,-3.417968511581421,4.119872570037842,6.530761241912842,60.0,491.0,1.0,Rest
284289.4375,293534.9375,714563.5,641002.5625,374114.9375,242349.34375,267669.65625,247366.40625,-0.2216796875,0.916015625,-0.251708984375,-3.265380620956421,5.004882335662842,6.774901866912842,60.0,492.0,1.0,Rest
284165.4375,293359.25,714560.0625,640877.125,373857.0,242255.90625,267597.59375,247338.96875,-0.222900390625,0.915283203125,-0.2470703125,-3.143310308456421,5.737304210662842,6.927489757537842,60.0,493.0,1.0,Rest
283926.90625,293060.71875,714559.9375,640664.0,373494.8125,242102.21875,267485.03125,247275.03125,-0.225830078125,0.91162109375,-0.24658203125,-3.082275152206421,6.591796398162842,7.232665538787842,60.0,494.0,1.0,Rest
283855.1875,292959.6875,714560.5625,640543.25,373224.15625,242062.96875,267423.71875,247255.09375,-0.227783203125,0.910400390625,-0.245849609375,-2.868652105331421,7.415771007537842,7.537841320037842,60.0,495.0,1.0,Rest
283982.9375,293088.96875,714562.75,640572.125,373122.96875,242160.234375,267443.65625,247313.75,-0.228759765625,0.910400390625,-0.247802734375,-2.716064214706421,8.087157249450684,7.843017101287842,60.0,496.0,1.0,Rest
284046.15625,293137.78125,714557.5,640510.0,372998.5,242196.265625,267432.03125,247329.21875,-0.236572265625,0.911376953125,-0.24951171875,-2.746581792831421,8.850096702575684,8.087157249450684,60.0,497.0,1.0,Rest
283900.96875,292941.71875,714553.125,640342.5625,372721.25,242094.34375,267350.46875,247278.078125,-0.243408203125,0.911865234375,-0.250244140625,-2.563476324081421,9.613036155700684,8.361815452575684,60.0,498.0,1.0,Rest
283642.9375,292623.15625,714549.4375,640079.0625,372331.53125,241924.46875,267222.375,247196.71875,-0.2490234375,0.91064453125,-0.248779296875,-2.502441167831421,10.101317405700684,8.636473655700684,60.0,499.0,1.0,Rest
283565.0625,292507.375,714555.875,640020.9375,372063.03125,241882.0,267172.65625,247199.671875,-0.254638671875,0.907958984375,-0.2451171875,-2.349853277206421,10.589598655700684,8.758543968200684,60.0,500.0,1.0,Rest
283674.84375,292610.46875,714557.3125,640058.4375,371938.9375,241949.15625,267183.8125,247258.140625,-0.26123046875,0.906005859375,-0.25,-2.166747808456421,10.864256858825684,8.850096702575684,60.0,501.0,1.0,Rest
283719.5625,292630.65625,714549.8125,639964.875,371777.5625,241951.296875,267154.6875,247244.375,-0.26611328125,0.90380859375,-0.25048828125,-1.9836424589157104,11.169432640075684,9.033202171325684,60.0,502.0,1.0,Rest
283577.125,292416.8125,714548.75,639802.6875,371485.125,241835.515625,267075.03125,247199.671875,-0.267333984375,0.899658203125,-0.252685546875,-1.8005369901657104,11.352538108825684,9.124754905700684,60.0,503.0,1.0,Rest
283327.25,292068.46875,714549.5625,639560.25,371089.75,241665.015625,266961.75,247142.53125,-0.26806640625,0.895263671875,-0.2587890625,-1.5563963651657104,11.505125999450684,9.185790061950684,60.0,504.0,1.0,Rest
283247.3125,291933.09375,714551.125,639526.25,370790.6875,241611.546875,266904.34375,247151.5625,-0.269775390625,0.89013671875,-0.2607421875,-1.2207030057907104,11.627196311950684,9.124754905700684,60.0,505.0,1.0,Rest
283361.21875,292028.0625,714550.5,639532.5,370651.03125,241686.203125,266919.71875,247198.421875,-0.27294921875,0.887451171875,-0.26318359375,-0.6713866591453552,11.688231468200684,9.185790061950684,60.0,506.0,1.0,Rest
283467.875,292087.6875,714552.5,639491.125,370529.0,241740.75,266939.75,247223.71875,-0.27490234375,0.88916015625,-0.263671875,-0.0610351525247097,11.779784202575684,9.246825218200684,60.0,507.0,1.0,Rest
283353.78125,291891.34375,714547.125,639329.3125,370249.4375,241649.734375,266878.15625,247197.15625,-0.2763671875,0.89111328125,-0.2626953125,0.3662109076976776,11.718749046325684,9.063719749450684,60.0,508.0,1.0,Rest
283124.46875,291589.875,714540.9375,639149.875,369866.3125,241489.0625,266770.9375,247134.84375,-0.274658203125,0.892822265625,-0.263427734375,0.8544921278953552,11.779784202575684,9.033202171325684,60.0,509.0,1.0,Rest
283066.4375,291488.75,714547.1875,639151.3125,369604.8125,241463.765625,266743.40625,247161.84375,-0.269287109375,0.896484375,-0.2626953125,1.4038084745407104,12.054442405700684,9.124754905700684,60.0,510.0,1.0,Rest
283186.34375,291600.0625,714549.0,639099.8125,369488.3125,241542.890625,266765.84375,247207.71875,-0.2646484375,0.900634765625,-0.259033203125,1.8005369901657104,12.176512718200684,9.277342796325684,60.0,511.0,1.0,Rest
283294.59375,291686.15625,714544.875,639032.3125,369388.0,241595.015625,266771.5625,247206.015625,-0.25830078125,0.9052734375,-0.25830078125,2.166747808456421,12.176512718200684,9.552000999450684,60.0,512.0,1.0,Rest
283201.625,291543.21875,714541.0625,638921.875,369155.625,241530.09375,266719.625,247189.5625,-0.254638671875,0.912109375,-0.25439453125,2.349853277206421,12.298583030700684,10.040282249450684,60.0,513.0,1.0,Rest
282984.0,291267.03125,714540.875,638765.5625,368800.59375,241391.4375,266619.03125,247157.015625,-0.24951171875,0.91943359375,-0.253662109375,2.502441167831421,12.481688499450684,10.589598655700684,60.0,514.0,1.0,Rest
282898.8125,291158.9375,714540.3125,638636.875,368523.15625,241341.984375,266553.6875,247146.921875,-0.241455078125,0.92724609375,-0.256103515625,2.471923589706421,12.634276390075684,11.138915061950684,60.0,515.0,1.0,Rest
283017.25,291275.0625,714542.125,638588.8125,368406.75,241416.546875,266557.875,247174.625,-0.236328125,0.932861328125,-0.25146484375,2.410888433456421,12.908934593200684,11.901854515075684,60.0,516.0,1.0,Rest
283127.875,291372.09375,714541.75,638619.25,368317.53125,241482.890625,266574.6875,247211.203125,-0.23583984375,0.93603515625,-0.2470703125,2.136230230331421,13.336180686950684,12.817381858825684,60.0,517.0,1.0,Rest
283033.625,291218.9375,714540.75,638461.625,368088.0,241413.421875,266530.4375,247187.78125,-0.233154296875,0.939208984375,-0.241455078125,1.8005369901657104,13.793944358825684,13.732909202575684,60.0,518.0,1.0,Rest
282825.125,290951.34375,714540.9375,638294.4375,367749.0625,241277.96875,266444.34375,247149.6875,-0.234130859375,0.9384765625,-0.23583984375,1.3427733182907104,14.160155296325684,14.648436546325684,60.0,519.0,1.0,Rest
282719.09375,290822.40625,714538.625,638150.125,367451.625,241212.078125,266373.25,247113.484375,-0.235595703125,0.937744140625,-0.234130859375,1.0070799589157104,14.343260765075684,15.533446311950684,60.0,520.0,1.0,Rest
282870.28125,290979.40625,714544.0,638185.5,367370.53125,241319.375,266408.125,247182.671875,-0.2353515625,0.93505859375,-0.233154296875,0.5187987685203552,14.465331077575684,16.571043014526367,60.0,521.0,1.0,Rest
283053.46875,291161.25,714547.3125,638277.25,367355.0625,241437.125,266465.1875,247269.140625,-0.231689453125,0.932861328125,-0.228271484375,0.0915527269244194,14.556883811950684,17.517087936401367,60.0,522.0,1.0,Rest
283023.0,291085.34375,714539.375,638130.8125,367193.75,241391.4375,266428.0625,247242.3125,-0.229736328125,0.928955078125,-0.2236328125,-0.2746581733226776,14.678954124450684,18.524168014526367,60.0,523.0,1.0,Rest
282897.71875,290920.65625,714534.25,637926.75,366954.0625,241301.671875,266362.71875,247191.4375,-0.225341796875,0.926025390625,-0.219970703125,-0.7019042372703552,14.617918968200684,19.531248092651367,60.0,524.0,1.0,Rest
282942.875,290985.03125,714535.25,637947.0,366844.8125,241356.828125,266373.625,247245.359375,-0.22216796875,0.9228515625,-0.218017578125,-0.9155272841453552,14.739989280700684,20.263669967651367,60.0,525.0,1.0,Rest
283230.84375,291314.40625,714538.625,637959.125,366931.4375,241553.96875,266467.5,247320.0,-0.21923828125,0.9228515625,-0.214111328125,-1.1596678495407104,14.770506858825684,21.118162155151367,60.0,526.0,1.0,Rest
283528.40625,291621.53125,714541.9375,638023.5,367053.9375,241740.296875,266572.0,247392.15625,-0.21435546875,0.92626953125,-0.20849609375,-1.4953612089157104,14.831542015075684,21.972654342651367,60.0,527.0,1.0,Rest
283600.375,291675.78125,714544.4375,637971.3125,367036.9375,241786.34375,266613.0625,247426.21875,-0.21240234375,0.926513671875,-0.20849609375,-1.8615721464157104,14.923094749450684,22.857664108276367,60.0,528.0,1.0,Rest
283546.5625,291611.0625,714543.4375,637886.125,366913.90625,241759.25,266603.84375,247413.796875,-0.2080078125,0.927978515625,-0.20361328125,-2.227782964706421,14.862059593200684,23.773191452026367,60.0,529.0,1.0,Rest
283617.90625,291707.34375,714540.9375,637772.0,366866.625,241819.15625,266628.59375,247421.21875,-0.2021484375,0.9306640625,-0.20068359375,-2.777099370956421,14.984129905700684,24.658201217651367,60.0,530.0,1.0,Rest
283919.375,292070.625,714537.125,637786.375,367006.1875,242015.046875,266726.34375,247493.375,-0.193359375,0.931884765625,-0.2001953125,-3.356933355331421,14.953612327575684,25.512693405151367,60.0,531.0,1.0,Rest
284211.21875,292412.78125,714533.5625,637852.625,367177.40625,242193.59375,266824.5,247563.28125,-0.183837890625,0.929443359375,-0.19921875,-3.906249761581421,14.984129905700684,26.306150436401367,60.0,532.0,1.0,Rest
284308.21875,292516.5,714530.0625,637795.8125,367226.21875,242244.109375,266863.84375,247575.359375,-0.17529296875,0.928955078125,-0.201904296875,-4.699706554412842,14.923094749450684,27.160642623901367,60.0,533.0,1.0,Rest
284318.75,292542.875,714533.6875,637705.25,367208.15625,242250.0,266883.34375,247591.171875,-0.166748046875,0.928466796875,-0.203857421875,-5.340575695037842,15.045165061950684,28.045652389526367,60.0,534.0,1.0,Rest
284427.3125,292710.3125,714529.6875,637648.8125,367244.46875,242313.390625,266910.59375,247594.484375,-0.159423828125,0.9228515625,-0.208251953125,-5.676269054412842,15.197752952575684,28.747556686401367,60.0,535.0,1.0,Rest
284778.9375,293135.09375,714526.75,637674.4375,367474.78125,242528.234375,267026.1875,247678.265625,-0.15185546875,0.92041015625,-0.21240234375,-5.981444835662842,15.411375999450684,29.266355514526367,60.0,536.0,1.0,Rest
285151.21875,293563.28125,714527.875,637754.5625,367766.78125,242747.46875,267164.875,247775.796875,-0.146240234375,0.917724609375,-0.213134765625,-6.134032726287842,15.655516624450684,29.693601608276367,60.0,537.0,1.0,Rest
285311.90625,293741.8125,714525.5,637721.5625,367916.34375,242818.1875,267230.84375,247798.328125,-0.142333984375,0.914794921875,-0.21630859375,-6.317138195037842,15.930174827575684,29.907224655151367,60.0,538.0,1.0,Rest
285346.6875,293751.90625,714531.0625,637651.375,367958.90625,242813.265625,267262.9375,247800.21875,-0.141357421875,0.90966796875,-0.220703125,-6.378173351287842,16.204832077026367,29.846189498901367,60.0,539.0,1.0,Rest
285483.1875,293901.03125,714532.75,637557.25,368041.0625,242876.75,267315.15625,247819.53125,-0.14306640625,0.90869140625,-0.225341796875,-6.072997570037842,16.387937545776367,29.571531295776367,60.0,540.0,1.0,Rest
285749.53125,294228.375,714522.4375,637452.8125,368207.8125,243002.453125,267377.65625,247815.59375,-0.143798828125,0.90966796875,-0.2265625,-5.889892101287842,16.448972702026367,29.083250045776367,60.0,541.0,1.0,Rest
285986.84375,294499.1875,714520.5625,637384.0625,368381.34375,243113.5,267452.3125,247842.6875,-0.142333984375,0.911376953125,-0.227783203125,-5.645751476287842,16.296384811401367,28.320310592651367,60.0,542.0,1.0,Rest
285977.09375,294475.65625,714524.875,637293.6875,368374.03125,243071.921875,267446.0625,247816.75,-0.138916015625,0.91455078125,-0.224365234375,-5.493163585662842,16.113279342651367,27.587888717651367,60.0,543.0,1.0,Rest
285769.3125,294252.59375,714520.5625,637034.6875,368170.34375,242913.859375,267335.5625,247711.4375,-0.132080078125,0.918212890625,-0.220703125,-5.462646007537842,15.899657249450684,26.733396530151367,60.0,544.0,1.0,Rest
285639.84375,294139.9375,714517.6875,636837.0,367987.15625,242832.9375,267244.25,247656.796875,-0.124755859375,0.91845703125,-0.223876953125,-5.462646007537842,15.838622093200684,25.848386764526367,60.0,545.0,1.0,Rest
285665.15625,294198.21875,714515.75,636700.9375,367905.96875,242840.71875,267197.9375,247622.65625,-0.11572265625,0.92138671875,-0.217041015625,-5.493163585662842,15.747069358825684,25.024412155151367,60.0,546.0,1.0,Rest
285684.8125,294228.1875,714525.5625,636633.5,367843.46875,242852.15625,267179.90625,247636.421875,-0.10546875,0.924560546875,-0.2177734375,-5.462646007537842,15.808104515075684,23.925779342651367,60.0,547.0,1.0,Rest
285456.1875,293967.28125,714524.4375,636465.625,367595.09375,242686.40625,267073.125,247568.921875,-0.094482421875,0.930908203125,-0.220947265625,-5.523681163787842,15.808104515075684,23.010251998901367,60.0,548.0,1.0,Rest
285086.3125,293581.875,714519.5,636214.8125,367211.28125,242450.28125,266932.21875,247463.140625,-0.088134765625,0.932373046875,-0.2216796875,-5.523681163787842,15.869139671325684,22.491453170776367,60.0,549.0,1.0,Rest
284819.4375,293342.6875,714514.5625,635937.0,366890.40625,242298.640625,266820.46875,247394.65625,-0.077880859375,0.937744140625,-0.22802734375,-5.645751476287842,15.930174827575684,21.545408248901367,60.0,550.0,1.0,Rest
284826.40625,293393.75,714518.875,635856.1875,366783.5625,242310.890625,266804.125,247417.1875,-0.068603515625,0.941650390625,-0.229736328125,-5.615233898162842,16.082761764526367,20.782468795776367,60.0,551.0,1.0,Rest
284856.90625,293456.15625,714519.0625,635896.6875,366725.625,242333.25,266797.59375,247448.390625,-0.061279296875,0.943603515625,-0.233642578125,-5.645751476287842,16.387937545776367,20.202634811401367,60.0,552.0,1.0,Rest
