EEG 1,EEG 2,EEG 3,EEG 4,EEG 5,EEG 6,EEG 7,EEG 8,Accelerometer X,Accelerometer Y,Accelerometer Z,Gyroscope X,Gyroscope Y,Gyroscope Z,Battery Level,Counter,Validation Indicator,State
750000.0625,557635.8125,750000.0625,674389.1875,-200139.046875,698939.4375,397164.5,508177.9375,0.044921875,0.899169921875,-0.314453125,0.0,0.0,0.0,73.33333587646484,1.0,1.0,WarmUp
673111.3125,149314.75,750000.0625,750000.0625,-330649.375,750000.0625,417424.9375,409719.125,0.04052734375,0.90869140625,-0.332275390625,0.0,0.0,0.0,73.33333587646484,2.0,1.0,WarmUp
516614.71875,70995.3984375,750000.0625,750000.0625,-264530.0625,712578.625,245141.515625,225915.0,0.0380859375,0.91357421875,-0.33642578125,0.0,0.0,0.0,73.33333587646484,3.0,1.0,WarmUp
512382.75,227068.609375,605274.1875,750000.0625,-155307.703125,482975.71875,135928.203125,81754.7265625,0.036865234375,0.918212890625,-0.33837890625,0.0,0.0,0.0,73.33333587646484,4.0,1.0,WarmUp
444488.59375,499915.46875,750000.0625,676467.1875,-93513.53125,594692.9375,242252.953125,98066.40625,0.036376953125,0.9208984375,-0.3408203125,0.0,0.0,0.0,73.33333587646484,5.0,1.0,WarmUp
339085.0,575869.125,750000.0625,710722.125,43873.8828125,735323.0625,411614.90625,440209.65625,0.037841796875,0.923095703125,-0.3408203125,0.0,0.0,0.0,73.33333587646484,6.0,1.0,WarmUp
470499.5,576842.25,750000.0625,750000.0625,265005.96875,750000.0625,432903.59375,534495.9375,0.038818359375,0.9267578125,-0.34326171875,-5.462646007537842,-5.554198741912842,-6.317138195037842,73.33333587646484,7.0,1.0,WarmUp
603269.5,668692.875,750000.0625,750000.0625,356190.96875,724535.9375,667711.125,534291.5625,0.04052734375,0.93310546875,-0.344482421875,-0.9155272841453552,-2.990722417831421,-2.349853277206421,73.33333587646484,8.0,1.0,WarmUp
636167.9375,750000.0625,750000.0625,750000.0625,463015.78125,722701.375,750000.0625,661962.25,0.04345703125,0.935546875,-0.34619140625,0.1220703050494194,-2.502441167831421,-1.3732908964157104,73.33333587646484,9.0,1.0,WarmUp
750000.0625,750000.0625,750000.0625,750000.0625,687098.9375,688491.25,736426.4375,655744.125,0.0458984375,0.941162109375,-0.344970703125,0.3356933295726776,-2.227782964706421,-0.8239745497703552,73.33333587646484,10.0,1.0,WarmUp
750000.0625,750000.0625,750000.0625,750000.0625,750000.0625,750000.0625,750000.0625,750000.0625,0.0498046875,0.946044921875,-0.34423828125,0.1831054538488388,-2.014159917831421,-0.6713866591453552,73.33333587646484,11.0,1.0,WarmUp
750000.0625,750000.0625,750000.0625,750000.0625,750000.0625,750000.0625,750000.0625,750000.0625,0.052001953125,0.9482421875,-0.3447265625,-0.0610351525247097,-1.8920897245407104,-0.4272460639476776,73.33333587646484,12.0,1.0,WarmUp
750000.0625,750000.0625,750000.0625,750000.0625,750000.0625,750000.0625,750000.0625,750000.0625,0.051513671875,0.9482421875,-0.342529296875,-0.3967284858226776,-1.6174315214157104,-0.1831054538488388,73.33333587646484,13.0,1.0,WarmUp
750000.0625,750000.0625,750000.0625,750000.0625,750000.0625,750000.0625,750000.0625,750000.0625,0.05078125,0.947265625,-0.341552734375,-0.7629393935203552,-1.4648436307907104,0.0,73.33333587646484,14.0,1.0,WarmUp
750000.0625,750000.0625,750000.0625,750000.0625,750000.0625,750000.0625,750000.0625,750000.0625,0.052001953125,0.946044921875,-0.340576171875,-1.2207030057907104,-1.1901854276657104,0.2746581733226776,73.33333587646484,15.0,1.0,WarmUp
750000.0625,750000.0625,750000.0625,750000.0625,750000.0625,750000.0625,750000.0625,750000.0625,0.04931640625,0.9453125,-0.339111328125,-1.5563963651657104,-1.0681151151657104,0.3051757514476776,73.33333587646484,16.0,1.0,WarmUp
750000.0625,750000.0625,750000.0625,750000.0625,750000.0625,750000.0625,750000.0625,750000.0625,0.046630859375,0.94140625,-0.3388671875,-1.9836424589157104,-0.8544921278953552,0.3051757514476776,73.33333587646484,17.0,1.0,WarmUp
750000.0625,750000.0625,750000.0625,750000.0625,750000.0625,750000.0625,750000.0625,750000.0625,0.04541015625,0.940673828125,-0.338623046875,-2.227782964706421,-0.7019042372703552,0.3051757514476776,73.33333587646484,18.0,1.0,WarmUp
675294.0,745750.25,750000.0625,750000.0625,750000.0625,750000.0625,750000.0625,750000.0625,0.04248046875,0.93994140625,-0.3388671875,-2.471923589706421,-0.5798339247703552,0.4577636420726776,73.33333587646484,19.0,1.0,WarmUp
644442.6875,708210.3125,750000.0625,750000.0625,750000.0625,750000.0625,750000.0625,750000.0625,0.04052734375,0.937255859375,-0.339599609375,-2.716064214706421,-0.5798339247703552,0.4882812201976776,73.33333587646484,20.0,1.0,WarmUp
625401.75,683944.25,750000.0625,750000.0625,750000.0625,750000.0625,750000.0625,750000.0625,0.03857421875,0.93505859375,-0.338134765625,-2.929687261581421,-0.5798339247703552,0.5187987685203552,73.33333587646484,21.0,1.0,WarmUp
609086.6875,662903.0,750000.0625,750000.0625,750000.0625,750000.0625,750000.0625,750000.0625,0.0361328125,0.932373046875,-0.337890625,-3.112792730331421,-0.6408690810203552,0.4272460639476776,73.33333587646484,22.0,1.0,WarmUp
593891.75,643744.6875,750000.0625,750000.0625,750000.0625,750000.0625,750000.0625,750000.0625,0.03271484375,0.9326171875,-0.3388671875,-3.326415777206421,-0.6713866591453552,0.4882812201976776,73.33333587646484,23.0,1.0,WarmUp
578775.3125,625416.75,750000.0625,750000.0625,750000.0625,750000.0625,750000.0625,750000.0625,0.029541015625,0.93017578125,-0.337890625,-3.479003667831421,-0.6713866591453552,0.2746581733226776,73.33333587646484,24.0,1.0,WarmUp
564220.3125,607988.25,750000.0625,750000.0625,750000.0625,750000.0625,750000.0625,750000.0625,0.027587890625,0.93017578125,-0.3388671875,-3.631591558456421,-0.7324218153953552,0.2136230319738388,73.33333587646484,25.0,1.0,WarmUp
551479.625,592434.1875,750000.0625,750000.0625,750000.0625,750000.0625,750000.0625,750000.0625,0.027099609375,0.931884765625,-0.340576171875,-3.631591558456421,-0.9765624403953552,0.0915527269244194,73.33333587646484,26.0,1.0,WarmUp
540692.125,578982.1875,750000.0625,750000.0625,750000.0625,750000.0625,750000.0625,750000.0625,0.026123046875,0.93701171875,-0.339111328125,-3.753661870956421,-1.2207030057907104,-0.03051757626235485,73.33333587646484,27.0,1.0,WarmUp
530497.9375,566571.0,750000.0625,750000.0625,750000.0625,750000.0625,750000.0625,750000.0625,0.027099609375,0.93896484375,-0.336669921875,-3.906249761581421,-1.2817381620407104,-0.1220703050494194,73.33333587646484,28.0,1.0,WarmUp
519888.8125,554201.9375,750000.0625,750000.0625,750000.0625,750000.0625,750000.0625,750000.0625,0.026611328125,0.939697265625,-0.335205078125,-3.997802495956421,-1.4953612089157104,-0.2441406100988388,73.33333587646484,29.0,1.0,WarmUp
509494.09375,542197.125,750000.0625,750000.0625,750000.0625,750000.0625,750000.0625,750000.0625,0.02685546875,0.9404296875,-0.337158203125,-3.997802495956421,-1.6479490995407104,-0.3356933295726776,73.33333587646484,30.0,1.0,WarmUp
500518.0,531521.625,750000.0625,750000.0625,750000.0625,750000.0625,750000.0625,750000.0625,0.024658203125,0.944580078125,-0.3369140625,-4.150390148162842,-1.7089842557907104,-0.3967284858226776,73.33333587646484,31.0,1.0,WarmUp
493016.84375,522346.625,750000.0625,750000.0625,750000.0625,750000.0625,750000.0625,750000.0625,0.02490234375,0.946533203125,-0.33740234375,-4.089354991912842,-2.014159917831421,-0.6408690810203552,73.33333587646484,32.0,1.0,WarmUp
485823.59375,513781.0625,750000.0625,750000.0625,750000.0625,750000.0625,750000.0625,750000.0625,0.0263671875,0.949951171875,-0.337158203125,-4.150390148162842,-2.136230230331421,-0.7019042372703552,73.33333587646484,33.0,1.0,WarmUp
478084.4375,505008.28125,750000.0625,750000.0625,750000.0625,750000.0625,750000.0625,750000.0625,0.026123046875,0.953369140625,-0.337890625,-4.119872570037842,-2.319335699081421,-0.8239745497703552,73.33333587646484,34.0,1.0,WarmUp
470389.28125,496345.46875,750000.0625,750000.0625,750000.0625,750000.0625,750000.0625,750000.0625,0.027587890625,0.955322265625,-0.337158203125,-4.272460460662842,-2.441406011581421,-0.9155272841453552,73.33333587646484,35.0,1.0,WarmUp
463837.4375,488663.59375,750000.0625,750000.0625,750000.0625,750000.0625,750000.0625,750000.0625,0.029541015625,0.9541015625,-0.335205078125,-4.302978038787842,-2.593993902206421,-0.9765624403953552,73.33333587646484,36.0,1.0,WarmUp
458495.28125,482168.09375,750000.0625,750000.0625,750000.0625,750000.0625,750000.0625,750000.0625,0.03125,0.95361328125,-0.3349609375,-4.364013195037842,-2.716064214706421,-1.0070799589157104,73.33333587646484,37.0,1.0,WarmUp
453326.375,476087.34375,750000.0625,750000.0625,750000.0625,750000.0625,750000.0625,750000.0625,0.028564453125,0.94970703125,-0.336669921875,-4.364013195037842,-2.746581792831421,-1.0986326932907104,73.33333587646484,38.0,1.0,WarmUp
447541.40625,469666.0625,750000.0625,750000.0625,750000.0625,750000.0625,750000.0625,750000.0625,0.028076171875,0.947998046875,-0.334228515625,-4.302978038787842,-2.838134527206421,-1.1291502714157104,73.33333587646484,39.0,1.0,WarmUp
441654.65625,463174.46875,750000.0625,750000.0625,750000.0625,750000.0625,750000.0625,750000.0625,0.028076171875,0.9423828125,-0.33251953125,-4.150390148162842,-2.868652105331421,-1.1596678495407104,73.33333587646484,40.0,1.0,WarmUp
436705.28125,457449.03125,750000.0625,750000.0625,750000.0625,750000.0625,750000.0625,750000.0625,0.02685546875,0.939208984375,-0.3310546875,-3.906249761581421,-2.960204839706421,-1.0375975370407104,73.33333587646484,41.0,1.0,WarmUp
432811.5,452715.125,750000.0625,750000.0625,750000.0625,750000.0625,750000.0625,750000.0625,0.0283203125,0.936767578125,-0.334228515625,-3.753661870956421,-3.021239995956421,-1.1291502714157104,73.33333587646484,42.0,1.0,WarmUp
429006.53125,448274.4375,750000.0625,750000.0625,750000.0625,750000.0625,750000.0625,750000.0625,0.026611328125,0.93310546875,-0.334228515625,-3.692626714706421,-2.990722417831421,-1.0986326932907104,73.33333587646484,43.0,1.0,WarmUp
424558.96875,443430.65625,750000.0625,750000.0625,750000.0625,750000.0625,750000.0625,750000.0625,0.02734375,0.933837890625,-0.335693359375,-3.326415777206421,-3.112792730331421,-1.1291502714157104,73.33333587646484,44.0,1.0,WarmUp
419931.4375,438417.96875,750000.0625,750000.0625,750000.0625,750000.0625,750000.0625,750000.0625,0.02734375,0.934326171875,-0.337158203125,-2.960204839706421,-3.204345464706421,-1.2512205839157104,73.33333587646484,45.0,1.0,WarmUp
416127.8125,434047.65625,750000.0625,750000.0625,750000.0625,750000.0625,750000.0625,750000.0625,0.02685546875,0.9384765625,-0.335693359375,-2.746581792831421,-3.112792730331421,-1.1291502714157104,73.33333587646484,46.0,1.0,WarmUp
413270.71875,430548.625,750000.0625,750000.0625,750000.0625,750000.0625,750000.0625,750000.0625,0.0283203125,0.938720703125,-0.3349609375,-2.380370855331421,-3.143310308456421,-1.0986326932907104,73.33333587646484,47.0,1.0,WarmUp
410460.84375,427272.125,750000.0625,750000.0625,750000.0625,750000.0625,750000.0625,750000.0625,0.027587890625,0.937744140625,-0.33349609375,-2.227782964706421,-3.021239995956421,-0.9460448622703552,73.33333587646484,48.0,1.0,WarmUp
406955.28125,423517.75,750000.0625,750000.0625,750000.0625,750000.0625,750000.0625,750000.0625,0.025634765625,0.934326171875,-0.330322265625,-2.044677495956421,-2.868652105331421,-0.8850097060203552,73.33333587646484,49.0,1.0,WarmUp
403225.75,419542.0,750000.0625,750000.0625,750000.0625,750000.0625,750000.0625,750000.0625,0.025634765625,0.93505859375,-0.328857421875,-1.8920897245407104,-2.777099370956421,-0.7629393935203552,73.33333587646484,50.0,1.0,WarmUp
400273.625,416165.71875,750000.0625,750000.0625,750000.0625,750000.0625,750000.0625,750000.0625,0.022705078125,0.93115234375,-0.32958984375,-1.7700194120407104,-2.868652105331421,-0.6408690810203552,73.33333587646484,51.0,1.0,WarmUp
398186.5,413564.78125,750000.0625,750000.0625,750000.0625,750000.0625,750000.0625,750000.0625,0.018798828125,0.927001953125,-0.32861328125,-1.4953612089157104,-2.807616949081421,-0.4577636420726776,73.33333587646484,52.0,1.0,WarmUp
396122.46875,411138.90625,750000.0625,750000.0625,750000.0625,750000.0625,750000.0625,750000.0625,0.014892578125,0.923095703125,-0.329345703125,-1.2207030057907104,-2.777099370956421,-0.4272460639476776,73.33333587646484,53.0,1.0,WarmUp
393337.6875,408196.0625,750000.0625,750000.0625,750000.0625,750000.0625,750000.0625,750000.0625,0.01416015625,0.919677734375,-0.334716796875,-0.8544921278953552,-2.777099370956421,-0.4272460639476776,73.33333587646484,54.0,1.0,WarmUp
390288.84375,404991.71875,750000.0625,750000.0625,750000.0625,750000.0625,750000.0625,750000.0625,0.0107421875,0.918212890625,-0.33349609375,-0.6103515028953552,-2.899169683456421,-0.3356933295726776,73.33333587646484,55.0,1.0,WarmUp
387926.15625,402288.15625,750000.0625,750000.0625,750000.0625,750000.0625,750000.0625,750000.0625,0.008056640625,0.91552734375,-0.332275390625,-0.1525878757238388,-3.021239995956421,-0.2136230319738388,73.33333587646484,56.0,1.0,WarmUp
386406.78125,400345.25,750000.0625,750000.0625,750000.0625,747175.75,750000.0625,750000.0625,0.008056640625,0.91455078125,-0.32958984375,0.1525878757238388,-3.204345464706421,-0.1525878757238388,73.33333587646484,57.0,1.0,WarmUp
384868.1875,398525.28125,750000.0625,750000.0625,750000.0625,740410.25,750000.0625,750000.0625,0.0087890625,0.916259765625,-0.33056640625,0.3662109076976776,-3.265380620956421,-0.1220703050494194,73.33333587646484,58.0,1.0,WarmUp
382626.21875,396199.96875,750000.0625,750000.0625,750000.0625,732933.0625,750000.0625,750000.0625,0.0078125,0.92041015625,-0.33349609375,0.6713866591453552,-3.326415777206421,-0.03051757626235485,73.33333587646484,59.0,1.0,WarmUp
380119.40625,393609.21875,750000.0625,750000.0625,750000.0625,724686.0625,750000.0625,750000.0625,0.00830078125,0.922119140625,-0.3359375,0.8850097060203552,-3.417968511581421,0.0915527269244194,73.33333587646484,60.0,1.0,WarmUp
378234.28125,391453.90625,750000.0625,750000.0625,750000.0625,717013.6875,750000.0625,750000.0625,0.0087890625,0.926025390625,-0.33349609375,1.0986326932907104,-3.509521245956421,0.2136230319738388,73.33333587646484,61.0,1.0,WarmUp
377145.5625,389995.84375,750000.0625,750000.0625,750000.0625,710836.5,750000.0625,750000.0625,0.009033203125,0.930419921875,-0.33447265625,1.3122557401657104,-3.601073980331421,0.3662109076976776,73.33333587646484,62.0,1.0,WarmUp
376032.53125,388653.21875,750000.0625,750000.0625,750000.0625,705360.8125,750000.0625,750000.0625,0.00830078125,0.934326171875,-0.33544921875,1.4648436307907104,-3.631591558456421,0.5798339247703552,73.33333587646484,63.0,1.0,WarmUp
374224.8125,386804.8125,750000.0625,750000.0625,750000.0625,699153.125,750000.0625,750000.0625,0.0078125,0.93603515625,-0.336181640625,1.5258787870407104,-3.753661870956421,0.7629393935203552,73.33333587646484,64.0,1.0,WarmUp
372093.53125,384630.4375,750000.0625,750000.0625,750000.0625,692101.25,750000.0625,750000.0625,0.007568359375,0.939453125,-0.335693359375,1.5869139432907104,-3.875732183456421,1.0070799589157104,73.33333587646484,65.0,1.0,WarmUp
370563.875,382876.71875,750000.0625,750000.0625,750000.0625,685559.75,750000.0625,750000.0625,0.00537109375,0.940185546875,-0.336181640625,1.5563963651657104,-3.906249761581421,1.2207030057907104,73.33333587646484,66.0,1.0,WarmUp
369802.84375,381799.28125,750000.0625,750000.0625,750000.0625,680454.875,750000.0625,750000.0625,0.006103515625,0.93994140625,-0.34033203125,1.4648436307907104,-4.028319835662842,1.4343260526657104,73.33333587646484,67.0,1.0,WarmUp
369010.40625,380817.3125,750000.0625,750000.0625,750000.0625,676002.0,750000.0625,750000.0625,0.00732421875,0.938232421875,-0.3388671875,1.4648436307907104,-4.058837413787842,1.7089842557907104,73.33333587646484,68.0,1.0,WarmUp
367510.625,379307.875,750000.0625,750000.0625,750000.0625,670775.8125,750000.0625,750000.0625,0.007568359375,0.935302734375,-0.33740234375,1.2817381620407104,-3.967284917831421,1.9836424589157104,73.33333587646484,69.0,1.0,WarmUp
365690.5625,377479.59375,750000.0625,750000.0625,750000.0625,664679.375,750000.0625,750000.0625,0.00732421875,0.931396484375,-0.3359375,1.1901854276657104,-3.967284917831421,2.197265386581421,73.33333587646484,70.0,1.0,WarmUp
364439.75,376040.40625,750000.0625,750000.0625,750000.0625,659031.1875,750000.0625,750000.0625,0.006103515625,0.926513671875,-0.337158203125,1.1596678495407104,-3.814697027206421,2.441406011581421,73.33333587646484,71.0,1.0,WarmUp
363939.78125,375250.84375,750000.0625,750000.0625,750000.0625,654751.3125,750000.0625,750000.0625,0.00732421875,0.920166015625,-0.34033203125,1.0070799589157104,-3.845214605331421,2.685546636581421,73.33333587646484,72.0,1.0,WarmUp
363389.84375,374533.1875,750000.0625,750000.0625,750000.0625,651073.0625,750000.0625,750000.0625,0.008544921875,0.91748046875,-0.34423828125,1.1596678495407104,-3.784179449081421,3.021239995956421,73.33333587646484,73.0,1.0,WarmUp
362129.46875,373288.53125,750000.0625,750000.0625,750000.0625,646601.9375,750000.0625,750000.0625,0.0068359375,0.9169921875,-0.343994140625,1.2817381620407104,-3.692626714706421,3.234863042831421,73.33333587646484,74.0,1.0,WarmUp
360537.9375,371714.8125,750000.0625,750000.0625,750000.0625,641229.3125,750000.0625,750000.0625,0.0078125,0.921142578125,-0.344970703125,1.4343260526657104,-3.540038824081421,3.540038824081421,73.33333587646484,75.0,1.0,WarmUp
359511.5625,370523.46875,750000.0625,750000.0625,750000.0625,636276.9375,750000.0625,750000.0625,0.0087890625,0.92138671875,-0.34814453125,1.4953612089157104,-3.448486089706421,3.906249761581421,73.33333587646484,76.0,1.0,WarmUp
359232.78125,369980.9375,750000.0625,750000.0625,750000.0625,632667.875,750000.0625,750000.0625,0.00927734375,0.92431640625,-0.347412109375,1.4953612089157104,-3.326415777206421,4.241942882537842,73.33333587646484,77.0,1.0,WarmUp
358930.3125,369536.84375,750000.0625,750000.0625,750000.0625,629674.9375,750000.0625,750000.0625,0.00830078125,0.925048828125,-0.3447265625,1.4648436307907104,-3.234863042831421,4.486083507537842,73.33333587646484,78.0,1.0,WarmUp
357924.125,368567.3125,750000.0625,749855.8125,749960.0,625878.75,749950.4375,750000.0625,0.009033203125,0.92431640625,-0.346435546875,1.3427733182907104,-3.082275152206421,4.760741710662842,73.33333587646484,79.0,1.0,WarmUp
356519.625,367199.40625,748461.0,748238.625,748343.0625,621092.75,748333.25,748865.1875,0.007568359375,0.921630859375,-0.347412109375,1.3427733182907104,-2.990722417831421,5.249022960662842,73.33333587646484,80.0,1.0,WarmUp
355642.125,366180.6875,746948.5625,746726.6875,746831.375,616656.5625,746821.0625,747351.875,0.007568359375,0.916748046875,-0.350830078125,1.4038084745407104,-2.838134527206421,5.645751476287842,73.33333587646484,81.0,1.0,WarmUp
355499.40625,365791.3125,745564.9375,745343.375,745448.5,613527.0625,745437.6875,745967.25,0.008056640625,0.914306640625,-0.3515625,1.3732908964157104,-2.746581792831421,6.011962413787842,73.33333587646484,82.0,1.0,WarmUp
355335.625,365498.4375,744244.375,744022.9375,744128.5625,610995.4375,744117.6875,744646.0625,0.009521484375,0.91357421875,-0.35205078125,1.4648436307907104,-2.532958745956421,6.225585460662842,73.33333587646484,83.0,1.0,WarmUp
354464.53125,364677.65625,742919.8125,742699.125,742804.625,607657.9375,742793.9375,743320.875,0.0107421875,0.909423828125,-0.352783203125,1.7089842557907104,-2.532958745956421,6.622313976287842,73.33333587646484,84.0,1.0,WarmUp
353200.9375,363463.53125,741609.75,741389.5,741495.4375,603330.5625,741484.5625,742010.4375,0.008056640625,0.90966796875,-0.352783203125,1.9531248807907104,-2.380370855331421,7.049560070037842,73.33333587646484,85.0,1.0,WarmUp
352466.28125,362602.875,740393.4375,740173.6875,740280.0625,599335.0625,740269.625,740794.625,0.0068359375,0.911865234375,-0.35546875,2.075195074081421,-2.227782964706421,7.354735851287842,73.33333587646484,86.0,1.0,WarmUp
352456.4375,362361.03125,739290.875,739071.5625,739177.4375,596623.9375,739167.1875,739691.3125,0.005126953125,0.914794921875,-0.357177734375,2.319335699081421,-2.075195074081421,7.690429210662842,73.33333587646484,87.0,1.0,WarmUp
352419.15625,362209.21875,738239.0625,738020.125,738126.0,594505.125,738115.8125,738638.4375,0.004150390625,0.916748046875,-0.3544921875,2.502441167831421,-1.9531248807907104,7.934569835662842,73.33333587646484,88.0,1.0,WarmUp
351656.09375,361509.4375,737167.8125,736949.625,737055.6875,591553.9375,737045.0625,737566.9375,0.003662109375,0.91796875,-0.35546875,2.532958745956421,-1.8615721464157104,8.239745140075684,73.33333587646484,89.0,1.0,WarmUp
350518.46875,360435.9375,736100.9375,735883.0,735989.5,587605.3125,735978.875,736500.3125,0.00390625,0.9169921875,-0.35595703125,2.624511480331421,-1.8310545682907104,8.483885765075684,73.33333587646484,90.0,1.0,WarmUp
349878.03125,359677.9375,735114.25,734896.3125,735003.0625,583954.8125,734992.5625,735512.875,0.005615234375,0.9169921875,-0.355224609375,2.624511480331421,-1.8005369901657104,8.697508811950684,73.33333587646484,91.0,1.0,WarmUp
349973.625,359552.6875,734236.875,734019.3125,734126.1875,581596.0625,734115.4375,734635.1875,0.00537109375,0.915771484375,-0.35693359375,2.471923589706421,-1.7395018339157104,9.002684593200684,73.33333587646484,92.0,1.0,WarmUp
350053.09375,359522.46875,733402.1875,733185.0,733291.75,579836.625,733280.8125,733800.1875,0.004150390625,0.915771484375,-0.358642578125,2.471923589706421,-1.6479490995407104,9.460448265075684,73.33333587646484,93.0,1.0,WarmUp
349401.21875,358939.625,732534.5625,732317.75,732424.9375,577242.9375,732413.5625,732932.625,0.005615234375,0.918701171875,-0.362060546875,2.471923589706421,-1.6479490995407104,9.674071311950684,73.33333587646484,94.0,1.0,WarmUp
348359.03125,357972.5,731662.8125,731446.1875,731553.9375,573642.625,731542.5,732060.1875,0.0087890625,0.91943359375,-0.36572265625,2.502441167831421,-1.6174315214157104,9.918211936950684,73.33333587646484,95.0,1.0,WarmUp
347807.71875,357318.9375,730865.75,730649.9375,730757.9375,570324.875,730746.25,731263.1875,0.009033203125,0.92236328125,-0.363525390625,2.593993902206421,-1.5869139432907104,10.162352561950684,73.33333587646484,96.0,1.0,WarmUp
347972.78125,357271.09375,730161.1875,729945.3125,730053.6875,568250.3125,730041.625,730558.3125,0.01025390625,0.923583984375,-0.361328125,2.502441167831421,-1.5258787870407104,10.345458030700684,73.33333587646484,97.0,1.0,WarmUp
348136.84375,357335.3125,729494.375,729279.1875,729387.0625,566786.8125,729375.25,729891.3125,0.014404296875,0.926025390625,-0.362060546875,2.349853277206421,-1.4343260526657104,10.650633811950684,73.33333587646484,98.0,1.0,WarmUp
347571.34375,356848.21875,728792.4375,728577.25,728685.4375,564502.625,728673.875,729188.9375,0.01513671875,0.925537109375,-0.36279296875,2.227782964706421,-1.4343260526657104,10.864256858825684,73.33333587646484,99.0,1.0,WarmUp
346598.9375,355956.8125,728079.4375,727864.1875,727973.0,561186.4375,727960.875,728475.375,0.015380859375,0.92431640625,-0.359130859375,1.9226073026657104,-1.1901854276657104,11.108397483825684,73.33333587646484,100.0,1.0,WarmUp
346130.71875,355395.875,727433.875,727219.25,727328.125,558131.75,727315.8125,727829.6875,0.016357421875,0.921875,-0.357421875,1.7700194120407104,-1.0681151151657104,11.444090843200684,73.33333587646484,101.0,1.0,WarmUp
346372.5625,355428.53125,726874.375,726659.5625,726768.625,556308.0625,726756.25,727270.125,0.016845703125,0.91943359375,-0.359130859375,1.5563963651657104,-0.8850097060203552,11.627196311950684,73.33333587646484,102.0,1.0,WarmUp
346604.5,355563.15625,726342.25,726127.5625,726236.75,555091.625,726224.5,726737.875,0.016845703125,0.91748046875,-0.358154296875,1.5563963651657104,-0.7934569716453552,11.779784202575684,73.33333587646484,103.0,1.0,WarmUp
346119.375,355164.3125,725778.0,725563.6875,725673.1875,553073.625,725660.5,726173.625,0.01708984375,0.911865234375,-0.36181640625,1.4648436307907104,-0.6408690810203552,11.901854515075684,73.33333587646484,104.0,1.0,WarmUp
345195.875,354329.34375,725187.375,724973.6875,725083.75,549984.0,725070.125,725583.1875,0.01904296875,0.911865234375,-0.3642578125,1.3732908964157104,-0.4882812201976776,12.084959983825684,73.33333587646484,105.0,1.0,WarmUp
344758.34375,353802.5625,724654.5,724440.625,724551.0625,547129.4375,724538.0,725050.0625,0.01708984375,0.910400390625,-0.365234375,1.4648436307907104,-0.3051757514476776,12.207030296325684,73.33333587646484,106.0,1.0,WarmUp
345041.3125,353881.96875,724206.5625,723992.8125,724102.75,545498.1875,724089.625,724601.375,0.01708984375,0.9111328125,-0.36376953125,1.4953612089157104,-0.1831054538488388,12.329100608825684,73.33333587646484,107.0,1.0,WarmUp
345334.125,354076.9375,723785.75,723572.3125,723682.3125,544474.0625,723668.5,724180.5625,0.015380859375,0.91357421875,-0.36376953125,1.5258787870407104,-0.0915527269244194,12.390135765075684,73.33333587646484,108.0,1.0,WarmUp
344912.1875,353745.15625,723324.125,723110.5,723221.0625,542643.0625,723207.0625,723718.5,0.013671875,0.912353515625,-0.3642578125,1.4953612089157104,-0.03051757626235485,12.512206077575684,73.33333587646484,109.0,1.0,WarmUp
344024.84375,352960.0,722830.0,722616.8125,722727.875,539710.0,722713.5,723224.4375,0.01318359375,0.913330078125,-0.36328125,1.5258787870407104,0.0610351525247097,12.481688499450684,73.33333587646484,110.0,1.0,WarmUp
343622.15625,352475.6875,722392.5,722179.375,722290.875,537000.25,722276.4375,722786.9375,0.01318359375,0.916015625,-0.361328125,1.3732908964157104,0.1220703050494194,12.542723655700684,73.33333587646484,111.0,1.0,WarmUp
343962.34375,352614.0,722039.4375,721826.1875,721937.9375,535539.125,721923.3125,722433.6875,0.013671875,0.91796875,-0.359375,1.3427733182907104,0.1525878757238388,12.542723655700684,73.33333587646484,112.0,1.0,WarmUp
344305.03125,352860.125,721705.5,721492.375,721604.3125,534679.0625,721589.5625,722099.3125,0.0146484375,0.91650390625,-0.358154296875,1.1596678495407104,0.2136230319738388,12.481688499450684,73.33333587646484,113.0,1.0,WarmUp
343904.75,352556.0625,721322.375,721109.4375,721221.4375,532990.4375,721206.625,721716.0625,0.016357421875,0.9130859375,-0.357666015625,0.9460448622703552,0.2136230319738388,12.542723655700684,73.33333587646484,114.0,1.0,WarmUp
343066.75,351826.84375,720913.8125,720701.0,720813.5,530233.3125,720798.125,721307.5625,0.018310546875,0.9091796875,-0.357177734375,0.8850097060203552,0.1831054538488388,12.481688499450684,73.33333587646484,115.0,1.0,WarmUp
342686.21875,351369.0,720551.25,720338.8125,720451.625,527663.625,720435.625,720945.0,0.02001953125,0.904052734375,-0.356689453125,0.7019042372703552,0.3356933295726776,12.573241233825684,73.33333587646484,116.0,1.0,WarmUp
343061.125,351542.09375,720272.1875,720059.3125,720172.5,526344.8125,720156.3125,720665.8125,0.018798828125,0.90087890625,-0.359375,0.7629393935203552,0.3967284858226776,12.664793968200684,73.33333587646484,117.0,1.0,WarmUp
343465.15625,351852.5,720016.6875,719803.875,719917.0,525665.5625,719901.25,720410.4375,0.017578125,0.900390625,-0.360107421875,0.8239745497703552,0.4272460639476776,12.634276390075684,73.33333587646484,118.0,1.0,WarmUp
343092.9375,351575.4375,719699.8125,719487.5625,719600.5625,524123.21875,719584.875,720093.5625,0.0185546875,0.901123046875,-0.36181640625,0.8544921278953552,0.3967284858226776,12.664793968200684,73.33333587646484,119.0,1.0,WarmUp
342265.40625,350860.34375,719351.0625,719138.6875,719252.0,521483.46875,719235.25,719744.375,0.0166015625,0.900390625,-0.361572265625,0.9765624403953552,0.3356933295726776,12.573241233825684,73.33333587646484,120.0,1.0,WarmUp
341898.375,350427.4375,719049.1875,718837.25,718950.5,519023.90625,718933.25,719442.4375,0.01611328125,0.902099609375,-0.359619140625,1.0986326932907104,0.2136230319738388,12.542723655700684,73.33333587646484,121.0,1.0,WarmUp
342293.65625,350629.875,718829.625,718617.5625,718731.375,517823.25,718713.9375,719222.5,0.016357421875,0.90283203125,-0.35888671875,1.0986326932907104,0.0915527269244194,12.512206077575684,73.33333587646484,122.0,1.0,WarmUp
342762.5,351010.46875,718642.0625,718430.1875,718544.125,517318.625,718526.25,719034.5625,0.0146484375,0.901611328125,-0.357177734375,1.0986326932907104,-0.0610351525247097,12.237547874450684,73.33333587646484,123.0,1.0,WarmUp
342454.3125,350804.21875,718389.6875,718178.0625,718292.1875,515958.75,718274.125,718782.625,0.013427734375,0.900390625,-0.357177734375,1.0375975370407104,-0.2441406100988388,12.329100608825684,73.33333587646484,124.0,1.0,WarmUp
341644.09375,350111.46875,718093.0,717881.1875,717996.0,513445.78125,717977.5,718485.625,0.01513671875,0.898681640625,-0.35498046875,0.9765624403953552,-0.4577636420726776,12.329100608825684,73.33333587646484,125.0,1.0,WarmUp
341272.0,349672.40625,717837.1875,717625.4375,717740.0,511070.59375,717721.1875,718229.625,0.018310546875,0.895751953125,-0.352783203125,0.8239745497703552,-0.6713866591453552,12.390135765075684,73.33333587646484,126.0,1.0,WarmUp
341691.65625,349898.34375,717665.4375,717453.9375,717568.625,509971.0625,717549.4375,718057.6875,0.018310546875,0.890625,-0.35498046875,0.7324218153953552,-0.8239745497703552,12.512206077575684,73.33333587646484,127.0,1.0,WarmUp
342139.40625,350253.5625,717511.5,717299.9375,717414.875,509522.34375,717395.125,717903.9375,0.0205078125,0.88525390625,-0.35302734375,0.7629393935203552,-1.0070799589157104,12.603758811950684,73.33333587646484,128.0,1.0,WarmUp
341836.78125,350050.15625,717297.8125,717086.3125,717201.1875,508240.78125,717181.5,717690.0625,0.0205078125,0.877197265625,-0.350341796875,0.8239745497703552,-1.2512205839157104,12.603758811950684,73.33333587646484,129.0,1.0,WarmUp
341043.03125,349379.5,717045.625,716834.1875,716949.125,505813.84375,716929.3125,717437.9375,0.02001953125,0.87353515625,-0.35595703125,0.9460448622703552,-1.5258787870407104,12.817381858825684,73.33333587646484,130.0,1.0,WarmUp
340699.25,348973.40625,716833.25,716622.375,716737.6875,503520.71875,716717.5,717225.75,0.022216796875,0.869384765625,-0.359375,1.0986326932907104,-1.6784666776657104,12.878417015075684,73.33333587646484,131.0,1.0,WarmUp
341115.875,349192.1875,716692.875,716481.4375,716597.25,502470.28125,716576.6875,717084.75,0.024658203125,0.86669921875,-0.3623046875,1.3732908964157104,-1.9226073026657104,12.939452171325684,73.33333587646484,132.0,1.0,WarmUp
341579.71875,349560.8125,716569.3125,716358.0625,716473.75,502110.875,716452.8125,716961.375,0.024658203125,0.865478515625,-0.365478515625,1.5869139432907104,-2.136230230331421,13.122557640075684,73.33333587646484,133.0,1.0,WarmUp
341300.25,349385.40625,716393.1875,716182.0,716298.25,500946.15625,716276.4375,716785.25,0.02490234375,0.869873046875,-0.3662109375,1.8920897245407104,-2.471923589706421,13.305663108825684,73.33333587646484,134.0,1.0,WarmUp
340525.4375,348741.59375,716175.9375,715964.9375,716081.4375,498626.5,716059.0,716567.75,0.028564453125,0.873291015625,-0.36328125,2.105712652206421,-2.777099370956421,13.397215843200684,73.33333587646484,135.0,1.0,WarmUp
340203.3125,348366.78125,715998.0,715787.5,715904.125,496456.40625,715881.5,716390.0,0.027099609375,0.873046875,-0.362548828125,2.319335699081421,-3.021239995956421,13.610838890075684,73.33333587646484,136.0,1.0,WarmUp
340674.84375,348643.40625,715900.75,715690.1875,715806.875,495578.15625,715784.0,716292.8125,0.028076171875,0.878173828125,-0.36083984375,2.380370855331421,-3.326415777206421,13.885497093200684,73.33333587646484,137.0,1.0,WarmUp
341203.59375,349076.96875,715822.625,715611.6875,715728.375,495400.15625,715705.375,716214.375,0.02978515625,0.880859375,-0.362060546875,2.319335699081421,-3.753661870956421,14.068602561950684,73.33333587646484,138.0,1.0,WarmUp
340946.90625,348931.59375,715677.125,715466.0625,715583.1875,494370.625,715559.6875,716068.5,0.02783203125,0.88134765625,-0.3623046875,2.197265386581421,-4.150390148162842,14.373778343200684,73.33333587646484,139.0,1.0,WarmUp
340172.46875,348293.65625,715484.1875,715273.8125,715391.1875,492159.96875,715367.0,715875.8125,0.026123046875,0.885498046875,-0.364501953125,2.166747808456421,-4.486083507537842,14.556883811950684,73.33333587646484,140.0,1.0,WarmUp
339851.9375,347918.875,715330.3125,715120.125,715237.8125,490067.84375,715212.9375,715721.75,0.02734375,0.887939453125,-0.365234375,2.197265386581421,-4.913329601287842,14.678954124450684,73.33333587646484,141.0,1.0,WarmUp
340332.3125,348205.25,715256.125,715045.9375,715163.875,489256.46875,715137.75,715647.4375,0.03125,0.893310546875,-0.365234375,2.166747808456421,-5.371093273162842,14.892577171325684,73.33333587646484,142.0,1.0,WarmUp
340864.21875,348644.125,715197.3125,714987.0,715104.875,489153.46875,715079.25,715588.8125,0.033935546875,0.89794921875,-0.369384765625,2.075195074081421,-5.920409679412842,15.075682640075684,73.33333587646484,143.0,1.0,WarmUp
340605.65625,348496.71875,715069.625,714859.3125,714977.0,488201.28125,714951.5,715461.25,0.03662109375,0.900634765625,-0.370849609375,1.9836424589157104,-6.347655773162842,15.258788108825684,73.33333587646484,144.0,1.0,WarmUp
339815.8125,347849.3125,714892.9375,714682.25,714800.875,486043.28125,714774.3125,715284.3125,0.04150390625,0.901611328125,-0.37060546875,1.6784666776657104,-6.652831554412842,15.472411155700684,73.33333587646484,145.0,1.0,WarmUp
339483.9375,347473.71875,714760.375,714550.0625,714668.8125,484017.3125,714641.25,715151.625,0.046875,0.904541015625,-0.368896484375,1.4648436307907104,-7.110595226287842,15.624999046325684,73.33333587646484,146.0,1.0,WarmUp
339958.34375,347761.40625,714704.3125,714493.75,714612.75,483280.59375,714584.4375,715095.0,0.051025390625,0.905517578125,-0.36962890625,1.2207030057907104,-7.385253429412842,15.838622093200684,73.33333587646484,147.0,1.0,WarmUp
340496.125,348207.46875,714658.875,714448.0625,714567.3125,483286.21875,714537.8125,715049.3125,0.052978515625,0.905029296875,-0.366455078125,0.9765624403953552,-7.568358898162842,15.869139671325684,73.33333587646484,148.0,1.0,WarmUp
340272.96875,348101.53125,714555.1875,714344.625,714464.25,482493.8125,714432.125,714945.375,0.0537109375,0.904541015625,-0.365966796875,0.5798339247703552,-7.812499523162842,16.113279342651367,73.33333587646484,149.0,1.0,WarmUp
339510.78125,347490.25,714403.5625,714193.375,714313.0625,480479.28125,714277.9375,714793.1875,0.0576171875,0.901611328125,-0.3623046875,0.2136230319738388,-8.056639671325684,16.204832077026367,73.33333587646484,150.0,1.0,WarmUp
339217.5,347160.25,714296.0,714085.4375,714205.6875,478578.0625,714166.625,714684.625,0.0576171875,0.8984375,-0.360107421875,-0.0610351525247097,-8.300780296325684,16.296384811401367,73.33333587646484,151.0,1.0,WarmUp
339743.21875,347498.75,714269.8125,714059.3125,714179.5625,477974.03125,714137.4375,714657.625,0.059326171875,0.893310546875,-0.35791015625,-0.4577636420726776,-8.575438499450684,16.265867233276367,73.33333587646484,152.0,1.0,WarmUp
340313.0,347968.5,714247.25,714037.0625,714157.25,478076.3125,714113.25,714634.5625,0.059814453125,0.885986328125,-0.35986328125,-0.7934569716453552,-8.880614280700684,16.357419967651367,73.33333587646484,153.0,1.0,WarmUp
340102.46875,347871.9375,714161.8125,713951.5,714071.75,477347.53125,714025.1875,714548.625,0.0615234375,0.88134765625,-0.361083984375,-1.1291502714157104,-9.216307640075684,16.235349655151367,73.33333587646484,154.0,1.0,WarmUp
339330.4375,347254.3125,714025.4375,713815.125,713935.875,475373.875,713885.3125,714411.5,0.064453125,0.8779296875,-0.3603515625,-1.3732908964157104,-9.521483421325684,16.265867233276367,73.33333587646484,155.0,1.0,WarmUp
339018.59375,346902.5625,713925.375,713714.8125,713835.5625,473478.09375,713781.5625,714310.0,0.068115234375,0.876708984375,-0.36279296875,-1.3732908964157104,-9.948729515075684,16.113279342651367,73.33333587646484,156.0,1.0,WarmUp
339518.1875,347204.40625,713898.0625,713687.8125,713808.625,472866.71875,713751.5,714282.125,0.07080078125,0.879150390625,-0.36474609375,-1.4343260526657104,-10.284422874450684,16.052244186401367,73.33333587646484,157.0,1.0,WarmUp
340084.59375,347667.1875,713883.375,713673.0625,713794.4375,473006.125,713734.6875,714267.1875,0.07568359375,0.8828125,-0.3662109375,-1.5869139432907104,-10.742186546325684,15.991209983825684,73.33333587646484,158.0,1.0,WarmUp
339877.0625,347573.3125,713805.0625,713594.4375,713716.0625,472321.25,713652.6875,714187.8125,0.07666015625,0.888427734375,-0.36572265625,-1.6479490995407104,-11.230467796325684,15.991209983825684,73.33333587646484,159.0,1.0,WarmUp
339105.3125,346960.15625,713679.5,713468.875,713591.0,470383.46875,713523.3125,714061.1875,0.079345703125,0.89404296875,-0.36083984375,-1.8310545682907104,-11.688231468200684,15.838622093200684,73.33333587646484,160.0,1.0,WarmUp
338775.9375,346592.25,713591.125,713380.625,713503.3125,468504.21875,713431.0,713971.875,0.08056640625,0.900634765625,-0.357421875,-2.197265386581421,-12.268065452575684,15.777586936950684,73.33333587646484,161.0,1.0,WarmUp
339284.3125,346901.59375,713577.9375,713367.5625,713490.5,467940.40625,713414.8125,713958.375,0.083984375,0.90087890625,-0.3525390625,-2.624511480331421,-12.603758811950684,15.624999046325684,73.33333587646484,162.0,1.0,WarmUp
339891.1875,347405.40625,713578.375,713368.0,713490.4375,468175.90625,713413.0625,713958.3125,0.084228515625,0.90087890625,-0.351318359375,-3.112792730331421,-13.000487327575684,15.716551780700684,73.33333587646484,163.0,1.0,WarmUp
339696.71875,347329.21875,713512.9375,713302.6875,713425.0,467601.75,713344.625,713892.0625,0.083984375,0.900634765625,-0.35302734375,-3.723144292831421,-13.427733421325684,15.502928733825684,73.33333587646484,164.0,1.0,WarmUp
338889.84375,346688.28125,713389.125,713179.5,713302.25,465710.34375,713216.375,713767.5625,0.085205078125,0.901123046875,-0.35400390625,-4.241942882537842,-14.007567405700684,15.319823265075684,73.33333587646484,165.0,1.0,WarmUp
338543.65625,346309.90625,713307.9375,713098.125,713221.125,463848.6875,713130.5625,713685.3125,0.08642578125,0.8994140625,-0.355224609375,-4.730224132537842,-14.617918968200684,15.197752952575684,73.33333587646484,166.0,1.0,WarmUp
339073.84375,346639.28125,713309.8125,713099.8125,713223.25,463316.71875,713129.3125,713686.5625,0.08837890625,0.899658203125,-0.35546875,-5.187987804412842,-15.197752952575684,15.045165061950684,73.33333587646484,167.0,1.0,WarmUp
339677.96875,347134.15625,713317.4375,713107.6875,713231.125,463562.15625,713134.4375,713693.5625,0.08935546875,0.901123046875,-0.35546875,-5.615233898162842,-15.899657249450684,14.801024436950684,73.33333587646484,168.0,1.0,WarmUp
339488.6875,347057.6875,713260.1875,713050.1875,713173.6875,462994.40625,713073.6875,713635.4375,0.089599609375,0.905029296875,-0.35498046875,-6.011962413787842,-16.479490280151367,14.617918968200684,73.33333587646484,169.0,1.0,WarmUp
338747.5,346478.6875,713161.875,712951.6875,713075.75,461179.4375,712970.6875,713535.9375,0.09326171875,0.910400390625,-0.357177734375,-6.469726085662842,-17.089841842651367,14.465331077575684,73.33333587646484,170.0,1.0,WarmUp
338405.0625,346102.90625,713090.25,712880.125,713004.875,459375.9375,712893.8125,713463.625,0.09375,0.9169921875,-0.3525390625,-6.958007335662842,-17.822263717651367,14.312743186950684,73.33333587646484,171.0,1.0,WarmUp
338947.78125,346448.84375,713098.125,712887.75,713012.4375,458939.0,712897.8125,713470.375,0.093505859375,0.922119140625,-0.350341796875,-7.537841320037842,-18.554685592651367,14.129637718200684,73.33333587646484,172.0,1.0,WarmUp
339598.125,346988.5,713121.0625,712911.0,713035.375,459330.6875,712918.125,713493.0,0.095458984375,0.925048828125,-0.34814453125,-8.239745140075684,-19.348142623901367,13.946532249450684,73.33333587646484,173.0,1.0,WarmUp
339413.125,346920.625,713067.4375,712857.625,712982.25,458881.25,712861.4375,713439.3125,0.097900390625,0.924560546875,-0.345458984375,-9.002684593200684,-20.111082077026367,13.671874046325684,73.33333587646484,174.0,1.0,WarmUp
338600.59375,346283.625,712956.5625,712746.5625,712871.9375,457087.03125,712744.25,713327.1875,0.09814453125,0.92529296875,-0.344970703125,-9.857176780700684,-20.935056686401367,13.488768577575684,73.33333587646484,175.0,1.0,WarmUp
338237.625,345893.53125,712884.3125,712674.3125,712799.9375,455314.96875,712665.375,713253.5,0.102294921875,0.925048828125,-0.348388671875,-10.772704124450684,-21.606443405151367,13.305663108825684,73.33333587646484,176.0,1.0,WarmUp
338774.0625,346227.375,712894.0,712684.25,712809.5625,454927.125,712671.125,713262.8125,0.1064453125,0.924072265625,-0.352783203125,-11.444090843200684,-22.399900436401367,13.183592796325684,73.33333587646484,177.0,1.0,WarmUp
339465.0,346806.375,712928.875,712719.0,712844.4375,455442.375,712703.125,713297.375,0.111328125,0.9248046875,-0.35205078125,-12.054442405700684,-23.162839889526367,13.153075218200684,73.33333587646484,178.0,1.0,WarmUp
339334.8125,346800.90625,712894.5,712684.9375,712810.375,455124.1875,712664.125,713262.4375,0.112060546875,0.929443359375,-0.353271484375,-12.573241233825684,-23.895261764526367,13.092040061950684,73.33333587646484,179.0,1.0,WarmUp
338526.125,346169.15625,712791.375,712581.5,712707.25,453382.1875,712552.0,713158.125,0.11669921875,0.9296875,-0.350830078125,-13.183592796325684,-24.597166061401367,13.061522483825684,73.33333587646484,180.0,1.0,WarmUp
338169.75,345786.25,712730.8125,712520.8125,712646.625,451639.09375,712480.3125,713096.3125,0.1220703125,0.930419921875,-0.35205078125,-13.671874046325684,-25.238035202026367,12.969969749450684,73.33333587646484,181.0,1.0,WarmUp
338698.78125,346110.625,712746.8125,712536.5625,712662.8125,451241.78125,712485.5625,713111.8125,0.122802734375,0.9365234375,-0.347900390625,-14.221190452575684,-25.939939498901367,12.969969749450684,73.33333587646484,182.0,1.0,WarmUp
339382.90625,346680.40625,712783.1875,712573.5625,712699.625,451731.71875,712495.6875,713148.0,0.12060546875,0.9384765625,-0.346435546875,-14.801024436950684,-26.550291061401367,12.969969749450684,73.33333587646484,183.0,1.0,WarmUp
339242.09375,346663.25,712749.75,712539.875,712666.5625,451397.78125,711950.8125,713108.8125,0.12060546875,0.938720703125,-0.3447265625,-15.472411155700684,-27.282712936401367,13.061522483825684,73.33333587646484,184.0,1.0,WarmUp
338436.28125,346036.40625,712653.9375,712444.0,712571.25,449653.09375,710070.3125,713006.4375,0.123046875,0.9404296875,-0.339599609375,-16.235349655151367,-27.862546920776367,13.153075218200684,73.33333587646484,185.0,1.0,WarmUp
338055.21875,345631.65625,712587.625,712377.875,712505.3125,447878.5625,707863.125,712938.1875,0.12255859375,0.94091796875,-0.341064453125,-16.845701217651367,-28.656003952026367,13.397215843200684,73.33333587646484,186.0,1.0,WarmUp
338589.53125,345958.25,712605.5,712395.5625,712523.25,447516.71875,706448.0,712954.625,0.121337890625,0.9404296875,-0.34033203125,-17.547605514526367,-29.449460983276367,13.427733421325684,73.33333587646484,187.0,1.0,WarmUp
339273.03125,346526.09375,712638.5625,712428.4375,712556.125,448109.40625,705617.5,712986.625,0.123779296875,0.94189453125,-0.342529296875,-18.096921920776367,-30.364988327026367,13.488768577575684,73.33333587646484,188.0,1.0,WarmUp
339155.46875,346530.1875,712613.875,712403.75,712531.6875,447943.71875,704377.0,712961.125,0.127197265625,0.940185546875,-0.340576171875,-18.585203170776367,-31.158445358276367,13.641356468200684,73.33333587646484,189.0,1.0,WarmUp
338353.21875,345913.28125,712520.875,712310.875,712439.0625,446328.25,702336.375,712867.0,0.13037109375,0.94189453125,-0.33740234375,-19.226072311401367,-31.860349655151367,13.824461936950684,73.33333587646484,190.0,1.0,WarmUp
337970.28125,345516.3125,712462.5,712252.5625,712381.125,444636.21875,700312.1875,712807.375,0.135009765625,0.941650390625,-0.332275390625,-19.683835983276367,-32.531734466552734,14.068602561950684,73.33333587646484,191.0,1.0,WarmUp
338508.25,345850.15625,712486.125,712276.1875,712404.9375,444340.28125,699100.5625,712830.0625,0.138427734375,0.942626953125,-0.330810546875,-20.263669967651367,-33.142086029052734,14.343260765075684,73.33333587646484,192.0,1.0,WarmUp
339228.6875,346453.84375,712534.5,712324.1875,712453.5,445037.75,698451.4375,712878.625,0.140380859375,0.9423828125,-0.3291015625,-20.874021530151367,-33.721920013427734,14.556883811950684,73.33333587646484,193.0,1.0,WarmUp
339125.96875,346476.1875,712514.8125,712304.8125,712433.8125,444954.21875,697365.8125,712858.25,0.145263671875,0.940673828125,-0.329833984375,-21.423337936401367,-34.210201263427734,14.862059593200684,73.33333587646484,194.0,1.0,WarmUp
338318.0,345852.40625,712421.75,712211.5625,712341.0,443402.84375,695461.6875,712764.25,0.142578125,0.940185546875,-0.32861328125,-21.942136764526367,-34.545894622802734,15.258788108825684,73.33333587646484,195.0,1.0,WarmUp
337910.8125,345427.8125,712360.6875,712150.1875,712279.9375,441786.71875,693542.8125,712701.875,0.143310546875,0.936279296875,-0.32568359375,-22.460935592651367,-35.125728607177734,15.472411155700684,73.33333587646484,196.0,1.0,WarmUp
338434.84375,345752.09375,712381.25,712171.125,712300.625,441588.6875,692422.75,712722.4375,0.142822265625,0.93603515625,-0.32275390625,-22.766111373901367,-35.522457122802734,15.777586936950684,73.33333587646484,197.0,1.0,WarmUp
339128.1875,346331.71875,712423.5625,712213.1875,712342.375,442330.21875,691826.9375,712764.4375,0.140869140625,0.938232421875,-0.3251953125,-23.071287155151367,-35.980220794677734,15.991209983825684,73.33333587646484,198.0,1.0,WarmUp
339028.25,346352.625,712405.8125,712195.25,712324.8125,442231.875,690780.6875,712746.5,0.14111328125,0.939453125,-0.32470703125,-23.315427780151367,-36.529537200927734,16.296384811401367,73.33333587646484,199.0,1.0,WarmUp
338220.4375,345731.53125,712319.5625,712109.4375,712239.625,440582.125,688882.0625,712659.125,0.137939453125,0.944580078125,-0.323974609375,-23.498533248901367,-36.865230560302734,16.448972702026367,73.33333587646484,200.0,1.0,WarmUp
337832.15625,345326.6875,712266.375,712056.5,712187.3125,438825.90625,687042.25,712599.5,0.135986328125,0.948486328125,-0.322265625,-23.498533248901367,-37.200923919677734,16.479490280151367,73.33333587646484,201.0,1.0,WarmUp
338361.4375,345647.3125,712294.0,712084.0625,712214.3125,438499.0625,686256.1875,712630.4375,0.134521484375,0.9541015625,-0.31884765625,-23.803709030151367,-37.719722747802734,16.571043014526367,73.33333587646484,202.0,1.0,WarmUp
339096.1875,346262.34375,712346.0,712136.375,712266.5625,439218.78125,686031.0625,712685.75,0.13232421875,0.95751953125,-0.315185546875,-24.047849655151367,-38.177486419677734,16.723630905151367,73.33333587646484,203.0,1.0,WarmUp
339011.53125,346299.09375,712331.4375,712121.6875,712251.875,439139.65625,685338.0625,712670.9375,0.128173828125,0.9638671875,-0.31103515625,-24.414060592651367,-38.635250091552734,16.845701217651367,73.33333587646484,204.0,1.0,WarmUp
338195.15625,345668.75,712242.75,712033.0,712163.375,437487.6875,683759.625,712581.8125,0.123779296875,0.968017578125,-0.306884765625,-24.841306686401367,-39.031978607177734,16.815183639526367,73.33333587646484,205.0,1.0,WarmUp
337748.375,345206.875,712178.375,711968.8125,712099.625,435689.15625,682101.875,712517.4375,0.117919921875,0.9736328125,-0.302734375,-25.299070358276367,-39.550777435302734,16.632078170776367,73.33333587646484,206.0,1.0,WarmUp
338304.5,345557.0,712211.25,712001.375,712132.6875,435420.6875,681317.25,712550.25,0.110595703125,0.97900390625,-0.30029296875,-25.756834030151367,-40.039058685302734,16.510007858276367,73.33333587646484,207.0,1.0,WarmUp
339064.1875,346199.75,712268.875,712059.125,712190.0625,436233.75,681122.9375,712607.6875,0.1083984375,0.982421875,-0.294677734375,-26.214597702026367,-40.405269622802734,16.296384811401367,73.33333587646484,208.0,1.0,WarmUp
338963.9375,346223.4375,712249.0,712039.5,712170.5,436208.09375,680442.5625,712587.9375,0.110595703125,0.984375,-0.289794921875,-26.580808639526367,-40.710445404052734,16.021726608276367,73.33333587646484,209.0,1.0,WarmUp
338111.09375,345559.25,712153.6875,711944.0625,712075.0,434584.625,678869.0625,712492.9375,0.117431640625,0.98486328125,-0.286376953125,-26.916501998901367,-41.015621185302734,15.808104515075684,73.33333587646484,210.0,1.0,WarmUp
337656.1875,345092.25,712090.5625,711881.125,712012.4375,432810.15625,677231.6875,712429.6875,0.130859375,0.9794921875,-0.28125,-27.313230514526367,-41.229244232177734,15.686034202575684,73.33333587646484,211.0,1.0,WarmUp
338213.90625,345443.625,712126.5,711917.3125,712048.1875,432581.1875,676476.625,712465.5625,0.14794921875,0.966552734375,-0.275146484375,-27.923582077026367,-41.015621185302734,15.991209983825684,73.33333587646484,212.0,1.0,WarmUp
339003.375,346107.21875,712195.1875,711985.8125,712117.25,433486.4375,676352.3125,712534.375,0.168212890625,0.947509765625,-0.27392578125,-28.167722702026367,-40.557857513427734,16.448972702026367,73.33333587646484,213.0,1.0,WarmUp
338934.90625,346159.4375,712187.3125,711977.8125,712109.25,433549.75,675745.3125,712526.625,0.190185546875,0.925537109375,-0.275634765625,-28.015134811401367,-39.703365325927734,17.272947311401367,73.33333587646484,214.0,1.0,WarmUp
338090.1875,345498.1875,712097.1875,711887.8125,712019.125,431954.625,674208.0625,712436.5,0.205810546875,0.904541015625,-0.277099609375,-27.496335983276367,-38.482662200927734,18.188474655151367,73.33333587646484,215.0,1.0,WarmUp
337650.375,345039.78125,712045.1875,711835.5625,711967.375,430197.15625,672611.4375,712384.625,0.218994140625,0.89013671875,-0.2783203125,-26.702878952026367,-36.926265716552734,19.195554733276367,73.33333587646484,216.0,1.0,WarmUp
338189.59375,345360.21875,712082.875,711873.0625,712005.0,429935.03125,671852.0,712422.0,0.2314453125,0.873291015625,-0.27880859375,-25.817869186401367,-35.278316497802734,20.599363327026367,73.33333587646484,217.0,1.0,WarmUp
338964.03125,345994.375,712143.0625,711933.375,712064.8125,430812.8125,671716.4375,712482.125,0.236328125,0.86669921875,-0.27734375,-25.207517623901367,-34.362789154052734,21.484373092651367,73.33333587646484,218.0,1.0,WarmUp
338877.5,346014.9375,712121.25,711911.6875,712043.3125,430854.03125,671096.25,712460.75,0.244384765625,0.854736328125,-0.275146484375,-23.895261764526367,-32.592769622802734,23.010251998901367,73.33333587646484,219.0,1.0,WarmUp
338041.1875,345369.59375,712040.0,711830.3125,711962.3125,429239.34375,669581.875,712379.4375,0.251708984375,0.84619140625,-0.275390625,-22.521970748901367,-30.700681686401367,24.597166061401367,73.33333587646484,220.0,1.0,WarmUp
337569.28125,344884.21875,711987.5,711777.375,711909.6875,427393.625,667954.625,712326.5,0.2587890625,0.84228515625,-0.280517578125,-21.118162155151367,-28.625486373901367,26.306150436401367,73.33333587646484,221.0,1.0,WarmUp
338108.5,345207.875,712026.3125,711816.25,711948.6875,427105.65625,667199.875,712365.5,0.260986328125,0.841064453125,-0.280029296875,-19.378660202026367,-26.580808639526367,27.832029342651367,73.33333587646484,222.0,1.0,WarmUp
338900.125,345860.625,712093.375,711883.625,712015.75,428000.625,667090.0,712433.1875,0.261474609375,0.84033203125,-0.27783203125,-17.761228561401367,-24.597166061401367,29.205320358276367,73.33333587646484,223.0,1.0,WarmUp
338823.21875,345891.375,712082.5625,711872.875,712005.125,428038.0625,666485.875,712422.375,0.26416015625,0.84326171875,-0.271240234375,-16.204832077026367,-22.766111373901367,30.426023483276367,73.33333587646484,224.0,1.0,WarmUp
337934.625,345196.4375,711985.0,711775.5,711908.125,426324.9375,664897.5625,712325.375,0.263671875,0.850341796875,-0.271240234375,-14.831542015075684,-20.843503952026367,31.494138717651367,73.33333587646484,225.0,1.0,WarmUp
337480.25,344732.40625,711935.75,711725.875,711858.6875,424454.625,663263.125,712275.8125,0.259521484375,0.86279296875,-0.26953125,-13.427733421325684,-19.042966842651367,32.409664154052734,73.33333587646484,226.0,1.0,WarmUp
338013.28125,345046.5,711974.875,711764.9375,711897.5625,424139.03125,662483.75,712315.25,0.25146484375,0.876953125,-0.26953125,-12.176512718200684,-17.395017623901367,33.050533294677734,73.33333587646484,227.0,1.0,WarmUp
338796.9375,345683.34375,712036.6875,711826.9375,711959.5,425031.9375,662351.125,712377.3125,0.2421875,0.89111328125,-0.261474609375,-11.108397483825684,-16.052244186401367,33.569332122802734,73.33333587646484,228.0,1.0,WarmUp
338749.8125,345750.5625,712032.3125,711822.4375,711955.25,425139.40625,661776.25,712372.8125,0.23388671875,0.906494140625,-0.257568359375,-10.437010765075684,-14.831542015075684,33.782955169677734,73.33333587646484,229.0,1.0,WarmUp
337888.46875,345085.125,711944.3125,711734.5,711867.625,423515.875,660224.3125,712284.6875,0.219970703125,0.91845703125,-0.24755859375,-10.009764671325684,-13.946532249450684,33.874507904052734,73.33333587646484,230.0,1.0,WarmUp
337405.21875,344595.4375,711888.0,711678.0625,711811.25,421662.0,658561.1875,712228.875,0.20556640625,0.930419921875,-0.243896484375,-9.887694358825684,-13.366698265075684,33.721920013427734,73.33333587646484,231.0,1.0,WarmUp
337961.15625,344935.09375,711930.625,711721.0625,711854.125,421405.15625,657797.9375,712271.75,0.19384765625,0.941162109375,-0.241943359375,-9.948729515075684,-13.092040061950684,33.203121185302734,73.33333587646484,232.0,1.0,WarmUp
338791.125,345619.59375,712002.875,711793.5,711926.0,422421.96875,657729.25,712343.8125,0.183837890625,0.949462890625,-0.238525390625,-10.040282249450684,-13.031004905700684,32.501216888427734,73.33333587646484,233.0,1.0,WarmUp
338750.1875,345695.03125,712000.0,711790.4375,711923.375,422641.46875,657200.0,712340.9375,0.17724609375,0.957763671875,-0.233642578125,-10.345458030700684,-13.214110374450684,31.738279342651367,73.33333587646484,234.0,1.0,WarmUp
337882.5625,345037.71875,711912.9375,711703.625,711836.75,421104.125,655684.8125,712254.3125,0.172119140625,0.962890625,-0.226806640625,-10.803221702575684,-13.702391624450684,30.731199264526367,73.33333587646484,235.0,1.0,WarmUp
337369.28125,344518.0,711851.125,711641.5625,711775.0625,419282.34375,654022.875,712192.4375,0.168212890625,0.971435546875,-0.22314453125,-11.291502952575684,-14.617918968200684,29.632566452026367,73.33333587646484,236.0,1.0,WarmUp
337920.21875,344850.6875,711891.375,711682.0625,711815.75,419079.59375,653281.6875,712233.125,0.17138671875,0.970703125,-0.218994140625,-11.962889671325684,-15.380858421325684,28.503416061401367,73.33333587646484,237.0,1.0,WarmUp
338755.53125,345539.03125,711966.1875,711756.375,711889.9375,420157.21875,653252.5,712307.8125,0.177001953125,0.97216796875,-0.212646484375,-12.573241233825684,-16.204832077026367,27.374265670776367,73.33333587646484,238.0,1.0,WarmUp
338701.28125,345602.96875,711958.875,711748.75,711882.0,420396.8125,652737.5625,712300.3125,0.178466796875,0.969482421875,-0.210205078125,-13.275145530700684,-16.937253952026367,26.214597702026367,73.33333587646484,239.0,1.0,WarmUp
337842.0625,344953.0625,711875.1875,711665.75,711799.125,418894.34375,651255.6875,712217.0,0.183837890625,0.964111328125,-0.21044921875,-14.007567405700684,-17.730710983276367,25.177000045776367,73.33333587646484,240.0,1.0,WarmUp
337344.875,344451.03125,711821.125,711611.6875,711745.375,417110.9375,649639.0625,712163.375,0.1904296875,0.955810546875,-0.20849609375,-14.617918968200684,-18.646238327026367,24.108884811401367,73.33333587646484,241.0,1.0,WarmUp
337906.0,344794.1875,711866.8125,711657.5,711791.3125,416929.0,648945.625,712209.3125,0.195556640625,0.945556640625,-0.20556640625,-15.106200218200684,-19.378660202026367,23.223875045776367,73.33333587646484,242.0,1.0,WarmUp
338753.3125,345488.34375,711943.0,711733.3125,711867.125,418016.0,648958.875,712285.375,0.201904296875,0.935546875,-0.206787109375,-15.350340843200684,-20.111082077026367,22.369382858276367,73.33333587646484,243.0,1.0,WarmUp
338720.9375,345567.1875,711940.125,711730.25,711864.125,418271.25,648496.0,712282.5625,0.206787109375,0.926513671875,-0.207275390625,-15.624999046325684,-20.721433639526367,21.484373092651367,73.33333587646484,244.0,1.0,WarmUp
337839.84375,344891.28125,711856.125,711646.9375,711780.875,416702.96875,647009.75,712199.0625,0.20849609375,0.91748046875,-0.211669921875,-15.563963890075684,-21.270750045776367,20.660398483276367,73.33333587646484,245.0,1.0,WarmUp
337288.65625,344338.5625,711790.1875,711580.4375,711715.1875,414775.96875,645333.1875,712132.75,0.2109375,0.912841796875,-0.211669921875,-15.411375999450684,-21.972654342651367,19.897459030151367,73.33333587646484,246.0,1.0,WarmUp
337822.03125,344652.84375,711827.875,711617.8125,711752.6875,414470.5625,644600.0,712170.625,0.21337890625,0.91064453125,-0.212158203125,-15.136717796325684,-22.583005905151367,19.287107467651367,73.33333587646484,247.0,1.0,WarmUp
338721.3125,345396.96875,711916.75,711707.0,711841.3125,415553.90625,644676.3125,712259.625,0.21875,0.90576171875,-0.2158203125,-14.862059593200684,-23.223875045776367,18.768308639526367,73.33333587646484,248.0,1.0,WarmUp
338714.0625,345507.375,711918.3125,711708.625,711842.9375,415842.59375,644282.25,712261.25,0.224853515625,0.904541015625,-0.214599609375,-14.556883811950684,-23.590085983276367,18.188474655151367,73.33333587646484,249.0,1.0,WarmUp
337793.15625,344809.90625,711824.25,711614.375,711749.125,414277.625,642824.25,712167.375,0.22998046875,0.902099609375,-0.2119140625,-14.099120140075684,-24.017332077026367,17.883298873901367,73.33333587646484,250.0,1.0,WarmUp
337235.8125,344266.9375,711763.0,711553.4375,711688.3125,412374.15625,641203.0625,712105.9375,0.232421875,0.901123046875,-0.208251953125,-13.793944358825684,-24.505613327026367,17.456052780151367,73.33333587646484,251.0,1.0,WarmUp
337774.40625,344590.4375,711809.3125,711599.9375,711734.9375,412092.34375,640524.25,712152.875,0.234619140625,0.90185546875,-0.2080078125,-13.397215843200684,-24.780271530151367,17.272947311401367,73.33333587646484,252.0,1.0,WarmUp
338646.375,345304.4375,711889.625,711680.0,711814.75,413163.6875,640600.3125,712233.25,0.23486328125,0.902587890625,-0.21142578125,-12.969969749450684,-25.054929733276367,16.998289108276367,73.33333587646484,253.0,1.0,WarmUp
338628.40625,345401.6875,711887.1875,711677.25,711812.1875,413449.96875,640214.0625,712230.5625,0.237548828125,0.905029296875,-0.2119140625,-12.512206077575684,-25.207517623901367,16.784666061401367,73.33333587646484,254.0,1.0,WarmUp
337726.90625,344721.9375,711796.6875,711586.875,711722.125,411878.65625,638777.375,712140.3125,0.239990234375,0.9140625,-0.2119140625,-12.084959983825684,-25.421140670776367,16.571043014526367,73.33333587646484,255.0,1.0,WarmUp
337146.9375,344158.125,711730.0,711520.4375,711655.4375,409921.96875,637138.5,712073.625,0.2431640625,0.918212890625,-0.213623046875,-11.688231468200684,-25.573728561401367,16.418455123901367,73.33333587646484,256.0,1.0,WarmUp
337674.4375,344468.75,711771.125,711561.1875,711696.5,409617.28125,636448.3125,712114.8125,0.247802734375,0.923095703125,-0.2138671875,-11.230467796325684,-25.634763717651367,16.235349655151367,73.33333587646484,257.0,1.0,WarmUp
338565.28125,345201.625,711854.875,711645.3125,711780.625,410747.65625,636552.0625,712199.3125,0.2529296875,0.9267578125,-0.208984375,-11.108397483825684,-25.543210983276367,16.174314498901367,73.33333587646484,258.0,1.0,WarmUp
338581.65625,345336.15625,711860.0,711650.4375,711786.0625,411136.75,636217.125,712204.5,0.25634765625,0.93017578125,-0.208984375,-10.742186546325684,-25.421140670776367,16.082761764526367,73.33333587646484,259.0,1.0,WarmUp
337694.09375,344670.71875,711774.6875,711564.875,711700.75,409640.25,634812.625,712119.125,0.260498046875,0.92919921875,-0.20751953125,-10.528563499450684,-25.177000045776367,15.991209983825684,73.33333587646484,260.0,1.0,WarmUp
337126.375,344116.125,711710.25,711500.5625,711636.6875,407756.71875,633196.9375,712055.375,0.261474609375,0.92333984375,-0.203857421875,-10.253905296325684,-24.902341842651367,15.960692405700684,73.33333587646484,261.0,1.0,WarmUp
337665.0625,344434.6875,711752.375,711542.4375,711678.625,407543.75,632527.3125,712097.1875,0.262451171875,0.919921875,-0.2041015625,-10.101317405700684,-24.566648483276367,15.930174827575684,73.33333587646484,262.0,1.0,WarmUp
338576.375,345182.5625,711837.625,711627.8125,711763.5,408788.40625,632666.8125,712182.3125,0.26220703125,0.909912109375,-0.203857421875,-9.826659202575684,-24.139402389526367,15.808104515075684,73.33333587646484,263.0,1.0,WarmUp
338618.3125,345332.3125,711846.4375,711636.125,711771.875,409300.78125,632381.0625,712191.0,0.25927734375,0.8984375,-0.205322265625,-9.307860374450684,-23.651121139526367,15.655516624450684,73.33333587646484,264.0,1.0,WarmUp
337718.59375,344655.34375,711760.75,711550.75,711686.3125,407890.125,631002.125,712105.5,0.257080078125,0.888916015625,-0.2099609375,-8.789061546325684,-23.406980514526367,15.502928733825684,73.33333587646484,265.0,1.0,WarmUp
337117.6875,344073.46875,711691.375,711481.5625,711617.375,406026.6875,629378.5,712036.0625,0.254638671875,0.882080078125,-0.214111328125,-8.026122093200684,-23.223875045776367,15.167235374450684,73.33333587646484,266.0,1.0,WarmUp
337652.09375,344387.28125,711737.125,711527.4375,711663.5,405853.4375,628735.1875,712082.4375,0.25634765625,0.876220703125,-0.217041015625,-7.141112804412842,-22.979734420776367,14.923094749450684,73.33333587646484,267.0,1.0,WarmUp
338569.125,345141.625,711826.9375,711617.5,711753.4375,407153.21875,628916.5,712172.1875,0.258056640625,0.876708984375,-0.223388671875,-6.164550304412842,-22.705076217651367,14.648436546325684,73.33333587646484,268.0,1.0,WarmUp
338598.90625,345280.375,711834.1875,711624.3125,711760.6875,407688.25,628647.875,712179.5625,0.265869140625,0.879638671875,-0.22802734375,-5.035399913787842,-22.338865280151367,14.465331077575684,73.33333587646484,269.0,1.0,WarmUp
337720.40625,344625.125,711755.3125,711545.625,711681.8125,406293.59375,627302.875,712100.9375,0.271728515625,0.884033203125,-0.228515625,-3.997802495956421,-21.942136764526367,14.251708030700684,73.33333587646484,270.0,1.0,WarmUp
337122.78125,344051.375,711690.125,711480.625,711617.1875,404407.28125,625692.25,712036.125,0.276611328125,0.8896484375,-0.22607421875,-3.112792730331421,-21.514890670776367,14.129637718200684,73.33333587646484,271.0,1.0,WarmUp
337615.6875,344321.3125,711723.0,711513.8125,711650.1875,404159.78125,625013.25,712069.1875,0.281494140625,0.893798828125,-0.226806640625,-2.258300542831421,-21.118162155151367,14.129637718200684,73.33333587646484,272.0,1.0,WarmUp
338539.28125,345074.28125,711812.4375,711602.9375,711739.125,405447.34375,625218.1875,712158.1875,0.287109375,0.89453125,-0.2255859375,-1.6784666776657104,-20.477293014526367,14.221190452575684,73.33333587646484,273.0,1.0,WarmUp
338617.59375,345256.78125,711827.4375,711617.8125,711753.9375,406048.6875,625033.5625,712173.4375,0.287109375,0.89306640625,-0.227783203125,-1.1596678495407104,-19.927976608276367,14.312743186950684,73.33333587646484,274.0,1.0,WarmUp
337724.9375,344585.6875,711738.5,711529.0,711665.1875,404686.9375,623722.25,712084.875,0.282958984375,0.890380859375,-0.23388671875,-0.7934569716453552,-19.287107467651367,14.312743186950684,73.33333587646484,275.0,1.0,WarmUp
337123.875,344002.84375,711671.8125,711462.4375,711598.9375,402845.78125,622160.3125,712018.5,0.280517578125,0.886474609375,-0.240234375,-0.3051757514476776,-18.737791061401367,14.160155296325684,73.33333587646484,276.0,1.0,WarmUp
337649.40625,344314.59375,711715.625,711506.1875,711643.0,402665.625,621572.625,712062.4375,0.279296875,0.884033203125,-0.242431640625,0.4577636420726776,-18.249509811401367,14.251708030700684,73.33333587646484,277.0,1.0,WarmUp
338574.0625,345073.5,711803.9375,711594.3125,711731.0,403981.78125,621831.75,712150.8125,0.28076171875,0.88623046875,-0.248046875,1.1901854276657104,-17.852781295776367,14.312743186950684,73.33333587646484,278.0,1.0,WarmUp
338632.78125,345235.0625,711813.875,711604.0,711740.5625,404596.90625,621679.5,712160.3125,0.2822265625,0.89111328125,-0.25146484375,1.8310545682907104,-17.456052780151367,14.343260765075684,73.33333587646484,279.0,1.0,WarmUp
337736.46875,344563.5,711726.1875,711516.25,711653.0,403252.84375,620413.625,712072.625,0.2841796875,0.894775390625,-0.2509765625,2.380370855331421,-17.150876998901367,14.343260765075684,73.33333587646484,280.0,1.0,WarmUp
337120.125,343969.59375,711654.875,711444.8125,711581.875,401380.5625,618870.75,712001.1875,0.287109375,0.8984375,-0.25146484375,2.807616949081421,-16.723630905151367,14.343260765075684,73.33333587646484,281.0,1.0,WarmUp
337656.1875,344284.28125,711702.0,711492.0625,711628.875,401196.9375,618318.9375,712048.5625,0.29150390625,0.904541015625,-0.252685546875,3.204345464706421,-16.357419967651367,14.312743186950684,73.33333587646484,282.0,1.0,WarmUp
338612.03125,345071.0625,711796.9375,711587.0625,711723.5,402573.09375,618646.5,712143.875,0.2958984375,0.909912109375,-0.254150390625,3.326415777206421,-15.869139671325684,14.312743186950684,73.33333587646484,283.0,1.0,WarmUp
338691.53125,345256.3125,711810.3125,711600.625,711737.3125,403245.4375,618553.8125,712157.375,0.300048828125,0.91552734375,-0.25732421875,3.479003667831421,-15.319823265075684,14.465331077575684,73.33333587646484,284.0,1.0,WarmUp
337802.375,344596.3125,711724.25,711514.625,711652.125,401926.75,617323.625,712071.625,0.30322265625,0.92138671875,-0.259033203125,3.479003667831421,-14.831542015075684,14.556883811950684,73.33333587646484,285.0,1.0,WarmUp
337165.34375,343984.96875,711653.125,711443.8125,711581.125,400055.375,615795.625,712000.875,0.308349609375,0.926025390625,-0.260498046875,3.356933355331421,-14.282225608825684,14.434813499450684,73.33333587646484,286.0,1.0,WarmUp
337663.78125,344269.1875,711693.0625,711483.625,711620.9375,399833.65625,615224.3125,712040.8125,0.3134765625,0.9306640625,-0.261962890625,3.173827886581421,-13.702391624450684,14.404295921325684,73.33333587646484,287.0,1.0,WarmUp
338601.5,345035.84375,711782.6875,711572.375,711709.625,401205.78125,615537.5625,712129.8125,0.317138671875,0.9345703125,-0.2626953125,2.990722417831421,-13.031004905700684,14.282225608825684,73.33333587646484,288.0,1.0,WarmUp
338695.03125,345233.15625,711797.5,711587.5625,711724.8125,401934.90625,615468.8125,712144.9375,0.322998046875,0.936767578125,-0.264404296875,2.593993902206421,-12.298583030700684,14.068602561950684,73.33333587646484,289.0,1.0,WarmUp
337816.875,344586.40625,711713.625,711504.1875,711641.5,400680.59375,614273.0625,712061.625,0.325439453125,0.9365234375,-0.265625,2.227782964706421,-11.596678733825684,13.854979515075684,73.33333587646484,290.0,1.0,WarmUp
337185.1875,343986.03125,711647.125,711437.625,711574.8125,398861.8125,612767.1875,711995.125,0.32666015625,0.939208984375,-0.268310546875,1.9836424589157104,-10.864256858825684,13.458250999450684,73.33333587646484,291.0,1.0,WarmUp
337655.5625,344244.40625,711683.5,711474.125,711611.1875,398664.03125,612181.4375,712031.6875,0.3310546875,0.93798828125,-0.271484375,1.7089842557907104,-10.162352561950684,13.061522483825684,73.33333587646484,292.0,1.0,WarmUp
338582.1875,344997.9375,711770.125,711560.5625,711697.4375,400057.8125,612489.125,712118.1875,0.33642578125,0.9384765625,-0.2724609375,1.2512205839157104,-9.368895530700684,12.512206077575684,73.33333587646484,293.0,1.0,WarmUp
338690.71875,345199.71875,711784.5625,711574.8125,711711.6875,400832.25,612440.4375,712132.75,0.338134765625,0.9375,-0.273193359375,0.7629393935203552,-8.605956077575684,11.962889671325684,73.33333587646484,294.0,1.0,WarmUp
337812.75,344551.8125,711699.3125,711489.5625,711626.75,399614.25,611258.9375,712047.5,0.34228515625,0.937744140625,-0.27587890625,0.3662109076976776,-7.751464366912842,11.230467796325684,73.33333587646484,295.0,1.0,WarmUp
337165.53125,343934.4375,711628.0,711418.625,711556.0,397794.0,609744.25,711976.6875,0.348876953125,0.937255859375,-0.279296875,0.0,-6.835937023162842,10.559081077575684,73.33333587646484,296.0,1.0,WarmUp
337661.28125,344210.90625,711666.6875,711457.125,711594.75,397613.15625,609175.625,712015.5625,0.3564453125,0.93798828125,-0.2841796875,-0.2441406100988388,-5.859374523162842,9.796141624450684,73.33333587646484,297.0,1.0,WarmUp
338621.625,344991.6875,711759.0625,711549.6875,711687.0625,399045.625,609525.3125,712107.9375,0.36474609375,0.93994140625,-0.291259765625,-0.5187987685203552,-4.852294445037842,9.002684593200684,73.33333587646484,298.0,1.0,WarmUp
338733.625,345200.625,711774.0,711564.4375,711701.75,399832.125,609497.4375,712122.3125,0.370361328125,0.942626953125,-0.29248046875,-0.7934569716453552,-3.692626714706421,8.209227561950684,73.33333587646484,299.0,1.0,WarmUp
337841.1875,344540.96875,711688.9375,711479.3125,711617.0625,398595.28125,608315.625,712037.9375,0.37353515625,0.943115234375,-0.287353515625,-1.0375975370407104,-2.471923589706421,7.232665538787842,73.33333587646484,300.0,1.0,WarmUp
337186.28125,343923.0,711617.6875,711408.0625,711545.625,396750.8125,606810.0,711966.5625,0.3759765625,0.94091796875,-0.289306640625,-1.3122557401657104,-1.3122557401657104,6.195067882537842,73.33333587646484,301.0,1.0,WarmUp
337656.28125,344187.09375,711656.25,711446.5625,711583.75,396510.21875,606233.4375,712005.3125,0.377197265625,0.93603515625,-0.29248046875,-1.4648436307907104,0.0,5.126952648162842,73.33333587646484,302.0,1.0,WarmUp
338599.53125,344953.6875,711748.0,711538.25,711675.4375,397872.78125,606567.75,712097.125,0.37744140625,0.930419921875,-0.294921875,-1.4648436307907104,1.2817381620407104,4.119872570037842,73.33333587646484,303.0,1.0,WarmUp
338711.5625,345159.15625,711763.0,711553.125,711690.75,398614.15625,606534.1875,712112.125,0.377685546875,0.923095703125,-0.29931640625,-1.4038084745407104,2.593993902206421,2.807616949081421,73.33333587646484,304.0,1.0,WarmUp
337813.375,344495.90625,711674.5,711464.8125,711602.25,397343.125,605345.6875,712023.625,0.379638671875,0.916259765625,-0.30126953125,-1.3122557401657104,3.753661870956421,1.7395018339157104,73.33333587646484,305.0,1.0,WarmUp
337139.6875,343869.09375,711601.375,711391.5,711529.1875,395438.59375,603818.375,711950.5,0.38037109375,0.91015625,-0.306396484375,-0.9460448622703552,4.913329601287842,0.5187987685203552,73.33333587646484,306.0,1.0,WarmUp
337587.625,344110.3125,711639.1875,711429.0625,711567.1875,395113.40625,603212.625,711988.5625,0.380126953125,0.9052734375,-0.309326171875,-0.4577636420726776,6.164550304412842,-0.6103515028953552,73.33333587646484,307.0,1.0,WarmUp
338520.6875,344861.5,711729.625,711520.0625,711657.5,396400.96875,603523.875,712079.375,0.383056640625,0.89990234375,-0.312744140625,0.03051757626235485,7.263183116912842,-1.6784666776657104,73.33333587646484,308.0,1.0,WarmUp
338628.9375,345066.15625,711744.375,711534.5625,711671.6875,397106.84375,603485.0,712094.0,0.38427734375,0.895751953125,-0.3134765625,0.4577636420726776,8.483885765075684,-2.716064214706421,73.33333587646484,309.0,1.0,WarmUp
337735.21875,344413.9375,711657.25,711447.5,711584.8125,395830.28125,602311.25,712006.875,0.38818359375,0.88916015625,-0.311767578125,1.0070799589157104,9.704588890075684,-3.814697027206421,73.33333587646484,310.0,1.0,WarmUp
337049.9375,343777.28125,711585.4375,711375.875,711513.5625,393907.59375,600794.8125,711935.125,0.389892578125,0.8837890625,-0.314453125,1.5869139432907104,10.955809593200684,-4.669188976287842,73.33333587646484,311.0,1.0,WarmUp
337500.375,344022.34375,711625.75,711416.4375,711554.3125,393574.8125,600208.125,711975.875,0.39111328125,0.88037109375,-0.320068359375,2.288818120956421,12.237547874450684,-5.462646007537842,73.33333587646484,312.0,1.0,WarmUp
338435.90625,344778.71875,711715.3125,711505.9375,711644.0625,394857.71875,600523.75,712065.75,0.390869140625,0.875244140625,-0.32373046875,3.112792730331421,13.549803733825684,-6.317138195037842,73.33333587646484,313.0,1.0,WarmUp
338567.0625,345002.0625,711734.1875,711524.625,711662.5,395583.25,600505.9375,712084.5625,0.390380859375,0.87353515625,-0.32568359375,3.936767339706421,14.831542015075684,-7.202147960662842,73.33333587646484,314.0,1.0,WarmUp
337684.375,344355.625,711651.9375,711442.0,711579.8125,394323.40625,599356.25,712002.1875,0.39111328125,0.872314453125,-0.327392578125,4.730224132537842,16.204832077026367,-7.904052257537842,73.33333587646484,315.0,1.0,WarmUp
336992.625,343716.125,711578.75,711368.625,711506.75,392398.40625,597845.1875,711928.875,0.386474609375,0.873046875,-0.333740234375,5.523681163787842,17.456052780151367,-8.666991233825684,73.33333587646484,316.0,1.0,WarmUp
337418.28125,343938.28125,711613.125,711402.9375,711541.375,392044.4375,597233.375,711963.1875,0.379638671875,0.869873046875,-0.33203125,6.011962413787842,18.646238327026367,-9.490965843200684,73.33333587646484,317.0,1.0,WarmUp
338342.75,344679.21875,711698.4375,711488.9375,711626.625,393327.96875,597533.125,712048.75,0.37255859375,0.864990234375,-0.332763671875,6.622313976287842,19.836423873901367,-10.253905296325684,73.33333587646484,318.0,1.0,WarmUp
338489.8125,344911.21875,711719.625,711509.625,711647.3125,394096.9375,597528.25,712070.0,0.366943359375,0.856689453125,-0.3349609375,7.019042491912842,20.935056686401367,-11.016844749450684,73.33333587646484,319.0,1.0,WarmUp
337638.59375,344289.5625,711641.125,711431.5625,711569.4375,392914.28125,596414.6875,711991.875,0.35986328125,0.852294921875,-0.339599609375,7.537841320037842,22.003171920776367,-11.901854515075684,73.33333587646484,320.0,1.0,WarmUp
336951.9375,343654.6875,711569.0625,711359.875,711497.875,391062.84375,594930.875,711919.875,0.35400390625,0.846435546875,-0.343505859375,8.239745140075684,22.918699264526367,-12.725829124450684,73.33333587646484,321.0,1.0,WarmUp
337355.96875,343856.46875,711601.0625,711391.25,711529.9375,390755.0,594324.0,711952.0625,0.35107421875,0.840576171875,-0.34912109375,9.063719749450684,23.742673873901367,-13.610838890075684,73.33333587646484,322.0,1.0,WarmUp
338271.84375,344589.53125,711690.1875,711480.4375,711618.625,392067.5,594624.5,712041.0625,0.345947265625,0.83544921875,-0.351806640625,9.582518577575684,24.627683639526367,-14.373778343200684,73.33333587646484,323.0,1.0,WarmUp
338418.40625,344817.25,711708.5625,711499.3125,711637.125,392852.40625,594616.4375,712059.75,0.339599609375,0.83056640625,-0.353271484375,10.253905296325684,25.268552780151367,-15.136717796325684,73.33333587646484,324.0,1.0,WarmUp
337549.4375,344177.0,711623.0625,711413.875,711552.0625,391662.5625,593482.5625,711974.6875,0.3330078125,0.823486328125,-0.3564453125,10.650633811950684,25.878904342651367,-15.899657249450684,73.33333587646484,325.0,1.0,WarmUp
336851.1875,343532.84375,711554.3125,711344.6875,711483.3125,389785.03125,591983.125,711905.625,0.3271484375,0.81640625,-0.3544921875,11.138915061950684,26.458738327026367,-16.601560592651367,73.33333587646484,326.0,1.0,WarmUp
337227.9375,343708.0625,711583.125,711373.6875,711512.5,389377.78125,591317.5625,711934.3125,0.321044921875,0.807373046875,-0.359375,11.505125999450684,26.916501998901367,-17.425535202026367,73.33333587646484,327.0,1.0,WarmUp
338118.25,344414.8125,711666.4375,711456.9375,711595.375,390557.25,591536.8125,712017.625,0.316650390625,0.800537109375,-0.36474609375,12.084959983825684,27.526853561401367,-18.280027389526367,73.33333587646484,328.0,1.0,WarmUp
338273.65625,344646.46875,711687.25,711478.0625,711616.25,391261.59375,591478.9375,712038.75,0.31396484375,0.7958984375,-0.369384765625,12.756346702575684,28.106687545776367,-19.134519577026367,73.33333587646484,329.0,1.0,WarmUp
337452.0,344042.625,711613.25,711404.125,711542.6875,390074.71875,590356.1875,711964.875,0.307861328125,0.793701171875,-0.37109375,13.458250999450684,28.686521530151367,-19.958494186401367,73.33333587646484,330.0,1.0,WarmUp
336740.03125,343379.21875,711538.0625,711328.75,711467.6875,388155.84375,588821.3125,711889.9375,0.303466796875,0.789794921875,-0.373779296875,13.854979515075684,28.991697311401367,-20.660398483276367,73.33333587646484,331.0,1.0,WarmUp
337086.3125,343522.625,711561.125,711351.5625,711490.75,387671.4375,588104.4375,711913.3125,0.30078125,0.788818359375,-0.3740234375,14.099120140075684,29.388425827026367,-21.423337936401367,73.33333587646484,332.0,1.0,WarmUp
337987.375,344237.71875,711644.5,711435.0625,711573.875,388813.1875,588310.125,711996.8125,0.29931640625,0.78173828125,-0.375244140625,14.434813499450684,29.632566452026367,-22.094724655151367,73.33333587646484,333.0,1.0,WarmUp
338153.125,344476.53125,711664.1875,711454.5625,711593.375,389524.125,588262.4375,712016.4375,0.298828125,0.774658203125,-0.37646484375,14.648436546325684,30.059812545776367,-22.796628952026367,73.33333587646484,334.0,1.0,WarmUp
337365.53125,343908.78125,711599.9375,711390.625,711529.75,388403.40625,587197.25,711952.625,0.296630859375,0.7666015625,-0.38232421875,14.984129905700684,30.609128952026367,-23.437498092651367,73.33333587646484,335.0,1.0,WarmUp
336666.09375,343261.65625,711531.3125,711321.75,711460.875,386516.125,585700.0625,711884.125,0.295654296875,0.762939453125,-0.388916015625,15.197752952575684,31.219480514526367,-24.108884811401367,73.33333587646484,336.0,1.0,WarmUp
337012.8125,343411.6875,711557.0,711347.0625,711486.625,386020.71875,584997.125,711909.625,0.295654296875,0.76318359375,-0.396728515625,15.441893577575684,31.707761764526367,-24.780271530151367,73.33333587646484,337.0,1.0,WarmUp
337908.25,344118.96875,711640.25,711430.3125,711569.6875,387136.0,585201.625,711992.75,0.2939453125,0.765625,-0.404052734375,15.747069358825684,32.196041107177734,-25.421140670776367,73.33333587646484,338.0,1.0,WarmUp
338073.8125,344354.375,711660.875,711451.3125,711590.0625,387822.71875,585152.4375,712013.625,0.29736328125,0.768798828125,-0.4111328125,15.960692405700684,32.714839935302734,-26.062009811401367,73.33333587646484,339.0,1.0,WarmUp
337255.65625,343760.09375,711585.4375,711376.25,711515.0,386668.21875,584057.125,711938.4375,0.29345703125,0.7744140625,-0.410888671875,16.052244186401367,33.264156341552734,-26.550291061401367,73.33333587646484,340.0,1.0,WarmUp
336557.65625,343121.5625,711517.1875,711307.4375,711447.125,384809.96875,582581.25,711870.125,0.28955078125,0.78076171875,-0.41259765625,15.991209983825684,33.874507904052734,-27.069089889526367,73.33333587646484,341.0,1.0,WarmUp
336915.28125,343291.4375,711546.4375,711336.875,711476.625,384336.5625,581908.8125,711899.625,0.28466796875,0.784912109375,-0.413330078125,15.716551780700684,34.545894622802734,-27.648923873901367,73.33333587646484,342.0,1.0,WarmUp
337808.71875,344002.3125,711630.0625,711420.125,711560.125,385426.15625,582105.4375,711983.1875,0.27783203125,0.78955078125,-0.4140625,15.228270530700684,35.156246185302734,-28.228757858276367,73.33333587646484,343.0,1.0,WarmUp
337988.875,344247.90625,711649.0,711439.25,711578.8125,386123.09375,582057.4375,712002.25,0.26953125,0.789794921875,-0.418212890625,14.678954124450684,35.675045013427734,-28.747556686401367,73.33333587646484,344.0,1.0,WarmUp
337206.46875,343680.625,711575.625,711366.1875,711505.5,385060.03125,581018.4375,711929.125,0.26318359375,0.7919921875,-0.4228515625,14.068602561950684,36.315914154052734,-29.327390670776367,73.33333587646484,345.0,1.0,WarmUp
336525.1875,343063.0,711510.125,711300.6875,711440.4375,383290.0625,579600.9375,711863.375,0.257568359375,0.795166015625,-0.429443359375,13.610838890075684,36.743160247802734,-29.937742233276367,73.33333587646484,346.0,1.0,WarmUp
336845.8125,343198.96875,711534.5625,711325.1875,711464.625,382808.34375,578909.5625,711888.4375,0.2509765625,0.796142578125,-0.433837890625,13.061522483825684,37.231441497802734,-30.578611373901367,73.33333587646484,347.0,1.0,WarmUp
337701.875,343878.84375,711612.6875,711403.75,711542.875,383842.40625,579059.8125,711966.6875,0.243408203125,0.796142578125,-0.439453125,12.390135765075684,37.597652435302734,-31.433103561401367,73.33333587646484,348.0,1.0,WarmUp
337900.8125,344143.03125,711639.625,711430.25,711569.6875,384534.25,579015.375,711993.5,0.24169921875,0.795166015625,-0.439453125,11.627196311950684,37.872310638427734,-32.012935638427734,73.33333587646484,349.0,1.0,WarmUp
337146.40625,343603.1875,711576.75,711367.0,711506.75,383499.625,577997.4375,711930.75,0.23974609375,0.7890625,-0.43798828125,10.803221702575684,38.146968841552734,-32.470699310302734,73.33333587646484,350.0,1.0,WarmUp
336416.46875,342934.59375,711496.125,711286.625,711426.9375,381703.25,576533.75,711850.875,0.237060546875,0.781982421875,-0.434814453125,10.101317405700684,38.421627044677734,-33.172603607177734,73.33333587646484,351.0,1.0,WarmUp
336725.65625,343057.1875,711518.125,711308.5625,711449.0,381208.84375,575826.125,711872.8125,0.235107421875,0.771728515625,-0.435302734375,9.185790061950684,38.757320404052734,-33.782955169677734,73.33333587646484,352.0,1.0,WarmUp
337600.3125,343753.9375,711603.375,711393.5625,711533.5,382242.21875,575986.125,711957.625,0.233642578125,0.761474609375,-0.434814453125,8.300780296325684,39.215084075927734,-34.362789154052734,73.33333587646484,353.0,1.0,WarmUp
337794.5,344003.46875,711625.375,711416.0,711555.5625,382923.84375,575924.625,711979.8125,0.23388671875,0.754638671875,-0.4375,7.598876476287842,39.703365325927734,-34.851070404052734,73.33333587646484,354.0,1.0,WarmUp
337047.0625,343456.90625,711554.3125,711344.6875,711484.875,381934.5625,574916.0625,711908.8125,0.23486328125,0.744873046875,-0.443603515625,6.896972179412842,40.374752044677734,-35.278316497802734,73.33333587646484,355.0,1.0,WarmUp
336379.5625,342844.125,711490.9375,711281.6875,711422.0,380271.0625,573551.4375,711845.9375,0.2373046875,0.73828125,-0.45068359375,6.530761241912842,41.076656341552734,-35.705562591552734,73.33333587646484,356.0,1.0,WarmUp
336703.46875,342989.3125,711520.875,711311.375,711451.9375,379853.96875,572901.5,711875.9375,0.234375,0.73486328125,-0.457275390625,6.164550304412842,41.778560638427734,-36.102291107177734,73.33333587646484,357.0,1.0,WarmUp
337567.3125,343674.4375,711602.5,711393.375,711533.3125,380920.6875,573085.0,711957.4375,0.233642578125,0.739013671875,-0.465087890625,5.859374523162842,42.633052825927734,-36.529537200927734,73.33333587646484,358.0,1.0,WarmUp
337782.625,343950.71875,711627.8125,711418.6875,711558.6875,381672.78125,573075.0,711983.0,0.2314453125,0.744384765625,-0.469970703125,5.645751476287842,43.457027435302734,-36.956783294677734,73.33333587646484,359.0,1.0,WarmUp
337055.90625,343437.53125,711564.5,711355.5625,711495.5,380777.53125,572131.625,711919.4375,0.227783203125,0.755126953125,-0.478515625,5.371093273162842,44.464107513427734,-37.139888763427734,73.33333587646484,360.0,1.0,WarmUp
336356.21875,342804.25,711495.25,711285.8125,711426.1875,379139.59375,570771.9375,711850.0625,0.220947265625,0.77197265625,-0.48046875,5.004882335662842,45.318599700927734,-37.353511810302734,73.33333587646484,361.0,1.0,WarmUp
336638.9375,342921.71875,711518.0,711308.8125,711449.5625,378721.1875,570121.3125,711873.4375,0.212890625,0.7900390625,-0.48046875,4.486083507537842,46.203609466552734,-37.445064544677734,73.33333587646484,362.0,1.0,WarmUp
337484.90625,343593.625,711596.0,711386.6875,711526.75,379773.0625,570308.1875,711951.3125,0.20166015625,0.805908203125,-0.4775390625,3.509521245956421,46.936031341552734,-37.689205169677734,73.33333587646484,363.0,1.0,WarmUp
337728.625,343899.3125,711627.125,711418.0,711557.625,380571.0,570346.25,711982.3125,0.192138671875,0.823974609375,-0.47705078125,2.288818120956421,47.698970794677734,-38.024898529052734,73.33333587646484,364.0,1.0,WarmUp
337048.75,343426.4375,711568.375,711359.4375,711499.0625,379788.875,569483.6875,711923.5625,0.182861328125,0.840576171875,-0.47607421875,0.8850097060203552,48.461910247802734,-38.330074310302734,73.33333587646484,365.0,1.0,WarmUp
336364.90625,342804.15625,711496.3125,711287.375,711427.5625,378265.375,568189.3125,711852.0625,0.17138671875,0.853515625,-0.47216796875,-0.6103515028953552,49.041744232177734,-38.635250091552734,73.33333587646484,366.0,1.0,WarmUp
336624.34375,342900.71875,711513.125,711303.625,711443.875,377886.21875,567555.8125,711868.5625,0.15771484375,0.867431640625,-0.46484375,-2.288818120956421,49.652095794677734,-38.909908294677734,73.33333587646484,367.0,1.0,WarmUp
337462.8125,343571.8125,711589.125,711379.875,711519.625,378947.125,567748.75,711944.5,0.146728515625,0.877685546875,-0.459716796875,-4.272460460662842,49.987789154052734,-39.337154388427734,73.33333587646484,368.0,1.0,WarmUp
337685.25,343846.90625,711611.875,711402.875,711542.5,379726.21875,567769.3125,711968.0,0.132568359375,0.886962890625,-0.44775390625,-6.652831554412842,50.109859466552734,-39.672847747802734,73.33333587646484,369.0,1.0,WarmUp
337022.65625,343384.3125,711558.6875,711349.5625,711489.5,379006.5625,566948.25,711914.875,0.123291015625,0.891357421875,-0.4404296875,-9.216307640075684,50.109859466552734,-40.008541107177734,73.33333587646484,370.0,1.0,WarmUp
336401.28125,342835.46875,711511.375,711302.1875,711442.9375,377632.46875,565771.875,711867.625,0.113037109375,0.8974609375,-0.4296875,-11.779784202575684,50.018306732177734,-40.618892669677734,73.33333587646484,371.0,1.0,WarmUp
336660.46875,342930.6875,711532.0625,711322.5625,711463.3125,377293.71875,565176.5,711888.0625,0.101806640625,0.9033203125,-0.417236328125,-14.312743186950684,50.109859466552734,-41.320796966552734,73.33333587646484,372.0,1.0,WarmUp
337451.53125,343548.46875,711600.25,711390.4375,711531.25,378287.125,565334.3125,711956.5625,0.08935546875,0.913818359375,-0.411865234375,-16.754148483276367,49.957271575927734,-42.053218841552734,73.33333587646484,373.0,1.0,WarmUp
337711.0,343864.53125,711629.75,711420.1875,711560.875,379083.0,565392.5,711986.125,0.0791015625,0.9287109375,-0.41015625,-19.134519577026367,49.560543060302734,-43.029781341552734,73.33333587646484,374.0,1.0,WarmUp
337042.96875,343394.875,711572.5625,711363.25,711503.875,378378.03125,564583.125,711929.3125,0.076416015625,0.94775390625,-0.40625,-21.728513717651367,49.102779388427734,-44.097896575927734,73.33333587646484,375.0,1.0,WarmUp
336391.90625,342800.75,711508.8125,711299.125,711440.25,376984.71875,563385.6875,711865.375,0.07373046875,0.972900390625,-0.405517578125,-24.261472702026367,48.553462982177734,-45.104976654052734,73.33333587646484,376.0,1.0,WarmUp
336692.375,342946.84375,711531.4375,711322.0625,711462.875,376690.03125,562842.25,711887.875,0.071533203125,1.001953125,-0.40380859375,-26.885984420776367,48.065181732177734,-46.325679779052734,73.33333587646484,377.0,1.0,WarmUp
337549.09375,343667.65625,711620.8125,711411.875,711552.875,377771.9375,563113.1875,711977.6875,0.071533203125,1.036376953125,-0.3984375,-29.632566452026367,47.576900482177734,-47.485347747802734,73.33333587646484,378.0,1.0,WarmUp
337815.59375,343996.40625,711656.9375,711447.9375,711588.375,378601.71875,563230.75,712013.625,0.071533203125,1.0693359375,-0.392333984375,-32.470699310302734,46.844478607177734,-48.767086029052734,73.33333587646484,379.0,1.0,WarmUp
337182.875,343554.1875,711600.625,711391.75,711532.125,377979.5625,562495.5625,711957.25,0.072998046875,1.099365234375,-0.382080078125,-35.583492279052734,46.295162200927734,-49.987789154052734,73.33333587646484,380.0,1.0,WarmUp
336538.15625,342975.46875,711527.6875,711319.1875,711459.625,376678.5,561359.0,711884.875,0.08203125,1.118408203125,-0.3671875,-38.787837982177734,45.715328216552734,-50.842281341552734,73.33333587646484,381.0,1.0,WarmUp
336765.0,343061.03125,711532.6875,711323.8125,711464.4375,376362.96875,560798.125,711889.6875,0.092041015625,1.13525390625,-0.34619140625,-41.625972747802734,45.318599700927734,-51.300045013427734,73.33333587646484,382.0,1.0,WarmUp
337542.28125,343677.65625,711589.375,711380.5,711521.125,377313.46875,560972.6875,711946.4375,0.099609375,1.14794921875,-0.32275390625,-44.372554779052734,45.501705169677734,-51.666255950927734,73.33333587646484,383.0,1.0,WarmUp
337841.09375,344020.46875,711615.375,711405.875,711546.625,378142.90625,561101.9375,711972.1875,0.105224609375,1.15380859375,-0.296142578125,-46.936031341552734,45.837398529052734,-52.185054779052734,73.33333587646484,384.0,1.0,WarmUp
337294.90625,343679.375,711575.3125,711365.9375,711506.5,377685.40625,560508.4375,711932.0625,0.11083984375,1.15966796875,-0.273681640625,-49.255367279052734,46.478267669677734,-52.337642669677734,73.33333587646484,385.0,1.0,WarmUp
336677.625,343149.28125,711517.3125,711308.4375,711449.25,376521.0625,559503.25,711874.75,0.111083984375,1.15673828125,-0.257080078125,-51.635738372802734,47.485347747802734,-52.551265716552734,73.33333587646484,386.0,1.0,WarmUp
336930.75,343278.1875,711534.625,711325.5,711466.6875,376310.84375,559070.0,711892.1875,0.100341796875,1.15234375,-0.2451171875,-53.558345794677734,48.522945404052734,-52.337642669677734,73.33333587646484,387.0,1.0,WarmUp
337718.78125,343930.15625,711601.25,711391.75,711532.875,377328.84375,559349.8125,711958.375,0.08642578125,1.14599609375,-0.233154296875,-54.840084075927734,49.438472747802734,-52.001949310302734,73.33333587646484,388.0,1.0,WarmUp
337989.6875,344267.5,711628.5,711419.25,711560.125,378163.8125,559533.8125,711985.6875,0.06787109375,1.138427734375,-0.221923828125,-55.816646575927734,50.445552825927734,-51.696773529052734,73.33333587646484,389.0,1.0,WarmUp
337381.09375,343865.34375,711580.9375,711371.0625,711512.0,377625.15625,558923.625,711937.8125,0.0439453125,1.133056640625,-0.205078125,-56.396480560302734,51.330562591552734,-51.361080169677734,73.33333587646484,390.0,1.0,WarmUp
336760.4375,343345.34375,711532.5,711322.75,711464.125,376422.4375,557935.0,711889.625,0.017578125,1.12548828125,-0.185791015625,-56.488033294677734,51.879878997802734,-51.269527435302734,73.33333587646484,391.0,1.0,WarmUp
336971.59375,343444.9375,711553.0,711343.3125,711484.5625,376117.65625,557471.75,711910.6875,-0.00830078125,1.121826171875,-0.16650390625,-56.640621185302734,52.124019622802734,-51.269527435302734,73.33333587646484,392.0,1.0,WarmUp
337711.53125,344041.28125,711619.5,711409.9375,711550.9375,376995.09375,557698.6875,711977.1875,-0.03515625,1.115234375,-0.142822265625,-56.304927825927734,52.154537200927734,-51.757808685302734,73.33333587646484,393.0,1.0,WarmUp
337954.1875,344331.15625,711642.0,711432.375,711573.0,377677.53125,557803.1875,711999.5625,-0.058837890625,1.114013671875,-0.126220703125,-55.755611419677734,52.001949310302734,-52.368160247802734,73.33333587646484,394.0,1.0,WarmUp
337354.71875,343921.3125,711584.875,711374.8125,711515.875,377034.59375,557127.4375,711942.375,-0.07666015625,1.115234375,-0.1044921875,-54.962154388427734,51.605220794677734,-52.886959075927734,73.33333587646484,395.0,1.0,WarmUp
336690.6875,343348.5625,711513.1875,711303.375,711444.8125,375686.53125,556026.5625,711870.75,-0.092529296875,1.119873046875,-0.086669921875,-54.016109466552734,50.933834075927734,-53.314205169677734,73.33333587646484,396.0,1.0,WarmUp
336858.78125,343414.625,711524.75,711315.0625,711456.4375,375243.6875,555470.1875,711882.4375,-0.105224609375,1.129150390625,-0.069580078125,-52.856441497802734,49.926753997802734,-53.680416107177734,73.33333587646484,397.0,1.0,WarmUp
337564.375,343982.625,711582.75,711373.375,711514.25,375990.34375,555596.8125,711941.0,-0.11181640625,1.138427734375,-0.059326171875,-51.544185638427734,48.553462982177734,-53.955074310302734,73.33333587646484,398.0,1.0,WarmUp
337825.96875,344282.25,711606.5625,711397.5625,711538.25,376639.53125,555663.4375,711964.9375,-0.117431640625,1.145263671875,-0.04541015625,-49.957271575927734,47.424312591552734,-54.138179779052734,73.33333587646484,399.0,1.0,WarmUp
337247.4375,343894.375,711568.0625,711359.3125,711499.75,376048.0,555022.25,711926.6875,-0.122314453125,1.15087890625,-0.0263671875,-48.553462982177734,46.569820404052734,-54.382320404052734,73.33333587646484,400.0,1.0,WarmUp
336587.875,343317.90625,711507.5,711298.1875,711439.4375,374728.0,553940.4375,711865.4375,-0.128173828125,1.15673828125,-0.0107421875,-46.997066497802734,45.532222747802734,-54.473873138427734,73.33333587646484,401.0,1.0,WarmUp
336732.4375,343329.34375,711508.375,711299.0625,711440.3125,374236.625,553321.5625,711866.5,-0.1357421875,1.160400390625,0.001708984375,-45.104976654052734,44.281002044677734,-54.260250091552734,73.33333587646484,402.0,1.0,WarmUp
337451.53125,343890.53125,711571.6875,711362.0625,711503.375,374975.03125,553431.75,711930.125,-0.142578125,1.164306640625,0.01416015625,-43.273921966552734,42.938228607177734,-53.924556732177734,73.33333587646484,403.0,1.0,WarmUp
337719.0625,344186.40625,711604.8125,711395.375,711536.4375,375609.71875,553500.8125,711963.0625,-0.146728515625,1.16455078125,0.02734375,-41.625972747802734,41.503902435302734,-53.619380950927734,73.33333587646484,404.0,1.0,WarmUp
337137.0,343781.125,711557.5625,711347.6875,711489.0625,374964.46875,552820.875,711915.5,-0.150634765625,1.158447265625,0.03857421875,-39.947505950927734,40.100093841552734,-53.009029388427734,73.33333587646484,405.0,1.0,WarmUp
336490.875,343212.9375,711497.375,711287.6875,711429.3125,373631.15625,551740.125,711855.6875,-0.155029296875,1.152099609375,0.051025390625,-38.299556732177734,38.818355560302734,-52.459712982177734,73.33333587646484,406.0,1.0,WarmUp
336641.96875,343228.5625,711499.625,711289.875,711431.5625,373123.84375,551135.5625,711857.5,-0.15966796875,1.14697265625,0.063720703125,-36.437984466552734,37.597652435302734,-51.910396575927734,73.33333587646484,407.0,1.0,WarmUp
337370.09375,343792.5625,711564.0,711354.875,711495.75,373865.125,551265.3125,711922.4375,-0.16064453125,1.1396484375,0.073486328125,-34.423824310302734,36.529537200927734,-51.269527435302734,73.33333587646484,408.0,1.0,WarmUp
337621.875,344061.59375,711582.375,711372.8125,711514.1875,374468.28125,551295.0,711941.0625,-0.164794921875,1.135986328125,0.084228515625,-32.531734466552734,35.522457122802734,-50.689693450927734,73.33333587646484,409.0,1.0,WarmUp
337039.65625,343645.21875,711530.625,711321.125,711462.9375,373801.375,550603.75,711889.0625,-0.168701171875,1.128662109375,0.09130859375,-30.456541061401367,34.149166107177734,-49.804683685302734,73.33333587646484,410.0,1.0,WarmUp
336393.15625,343067.90625,711476.875,711267.5,711409.1875,372435.78125,549522.0625,711835.5,-0.16943359375,1.1142578125,0.0966796875,-28.625486373901367,32.867427825927734,-48.889156341552734,73.33333587646484,411.0,1.0,WarmUp
336515.71875,343067.03125,711487.8125,711278.25,711420.0,371864.5625,548895.3125,711846.4375,-0.17236328125,1.099365234375,0.104248046875,-26.641843795776367,31.829832077026367,-48.126216888427734,73.33333587646484,412.0,1.0,WarmUp
337191.625,343580.9375,711547.1875,711337.6875,711479.0625,372446.96875,548928.3125,711905.6875,-0.178466796875,1.084716796875,0.108154296875,-24.566648483276367,30.822751998901367,-47.546382904052734,73.33333587646484,413.0,1.0,WarmUp
337454.84375,343862.125,711576.6875,711367.375,711508.4375,372952.1875,548919.0625,711935.4375,-0.18310546875,1.071533203125,0.115966796875,-22.399900436401367,29.815671920776367,-46.844478607177734,73.33333587646484,414.0,1.0,WarmUp
336879.25,343453.96875,711529.75,711320.25,711461.5,372193.21875,548177.25,711888.4375,-0.18603515625,1.056884765625,0.1240234375,-20.477293014526367,28.656003952026367,-45.867916107177734,73.33333587646484,415.0,1.0,WarmUp
336205.3125,342854.6875,711467.6875,711257.875,711399.75,370704.6875,547010.625,711826.5625,-0.1845703125,1.040283203125,0.134033203125,-18.463132858276367,27.374265670776367,-44.982906341552734,73.33333587646484,416.0,1.0,WarmUp
336300.53125,342814.0,711469.0,711259.75,711401.4375,369988.1875,546279.625,711828.1875,-0.177978515625,1.01806640625,0.1396484375,-16.418455123901367,26.214597702026367,-43.853755950927734,73.33333587646484,417.0,1.0,WarmUp
336967.9375,343301.875,711523.1875,711314.375,711455.625,370462.65625,546228.3125,711883.0,-0.17431640625,1.002685546875,0.142578125,-14.404295921325684,25.512693405151367,-42.572017669677734,73.33333587646484,418.0,1.0,WarmUp
337232.75,343568.0625,711552.0,711342.3125,711483.6875,370905.84375,546166.75,711911.25,-0.169677734375,0.983154296875,0.141845703125,-12.268065452575684,24.658201217651367,-41.290279388427734,73.33333587646484,419.0,1.0,WarmUp
336671.28125,343156.59375,711500.6875,711290.9375,711432.5625,370110.9375,545376.875,711860.1875,-0.16162109375,0.96630859375,0.14013671875,-10.223387718200684,23.956296920776367,-39.978023529052734,73.33333587646484,420.0,1.0,WarmUp
335999.03125,342554.96875,711433.1875,711223.875,711365.5,368588.59375,544159.3125,711792.75,-0.15478515625,0.955322265625,0.141357421875,-8.026122093200684,23.437498092651367,-38.482662200927734,73.33333587646484,421.0,1.0,WarmUp
336097.21875,342519.59375,711435.6875,711226.1875,711368.25,367874.78125,543405.875,711795.375,-0.150390625,0.949951171875,0.14404296875,-5.981444835662842,22.979734420776367,-36.865230560302734,73.33333587646484,422.0,1.0,WarmUp
336792.15625,343048.40625,711498.4375,711288.875,711431.0,368402.1875,543373.8125,711857.75,-0.148193359375,0.9501953125,0.1455078125,-3.967284917831421,22.705076217651367,-35.430904388427734,73.33333587646484,423.0,1.0,WarmUp
337109.46875,343372.34375,711535.4375,711325.875,711468.0625,368946.84375,543358.3125,711894.6875,-0.146240234375,0.955322265625,0.148193359375,-2.075195074081421,22.674558639526367,-33.721920013427734,73.33333587646484,424.0,1.0,WarmUp
336602.1875,343011.5,711493.25,711284.125,711426.3125,368293.90625,542653.875,711853.125,-0.1455078125,0.957275390625,0.150146484375,-0.3356933295726776,22.735593795776367,-32.012935638427734,73.33333587646484,425.0,1.0,WarmUp
335969.96875,342446.0,711431.9375,711222.8125,711364.9375,366917.75,541533.0625,711792.125,-0.141357421875,0.958251953125,0.154052734375,0.9765624403953552,22.705076217651367,-30.426023483276367,73.33333587646484,426.0,1.0,WarmUp
336104.8125,342446.09375,711443.0,711233.625,711375.9375,366356.1875,540895.3125,711802.625,-0.13525390625,0.957763671875,0.15625,2.288818120956421,22.674558639526367,-28.839109420776367,73.33333587646484,427.0,1.0,WarmUp
336837.59375,342994.0625,711509.6875,711300.375,711442.75,367013.5,540965.0,711869.6875,-0.1298828125,0.952392578125,0.14990234375,3.387450933456421,22.674558639526367,-27.099607467651367,73.33333587646484,428.0,1.0,WarmUp
337178.3125,343332.46875,711544.5625,711335.0,711477.4375,367650.28125,541022.75,711904.5,-0.122802734375,0.947021484375,0.14013671875,4.486083507537842,22.857664108276367,-25.482175827026367,73.33333587646484,429.0,1.0,WarmUp
336664.0625,342970.375,711500.5625,711290.9375,711433.0625,367056.78125,540368.75,711860.375,-0.118896484375,0.942138671875,0.13818359375,5.645751476287842,23.254392623901367,-23.986814498901367,73.33333587646484,430.0,1.0,WarmUp
336059.03125,342439.5625,711450.8125,711241.5625,711383.9375,365776.75,539343.75,711811.0,-0.117919921875,0.94189453125,0.131591796875,6.896972179412842,23.559568405151367,-22.338865280151367,73.33333587646484,431.0,1.0,WarmUp
336207.90625,342462.4375,711467.4375,711258.125,711400.5625,365260.6875,538756.75,711827.5625,-0.116455078125,0.939453125,0.12841796875,7.965087413787842,23.773191452026367,-21.026609420776367,73.33333587646484,432.0,1.0,WarmUp
336902.40625,342982.96875,711522.25,711312.5,711455.375,365898.15625,538798.8125,711882.5,-0.1162109375,0.9384765625,0.125,8.911131858825684,23.986814498901367,-19.775388717651367,73.33333587646484,433.0,1.0,WarmUp
337266.46875,343347.3125,711564.125,711354.5,711497.125,366610.03125,538908.875,711924.5625,-0.117431640625,0.9365234375,0.124755859375,9.857176780700684,24.139402389526367,-18.554685592651367,73.33333587646484,434.0,1.0,WarmUp
336832.65625,343061.90625,711538.125,711328.75,711471.625,366168.4375,538378.0625,711899.1875,-0.116455078125,0.935546875,0.124267578125,10.650633811950684,24.291990280151367,-17.517087936401367,73.33333587646484,435.0,1.0,WarmUp
336243.46875,342543.375,711485.125,711275.75,711418.875,364950.71875,537401.25,711846.125,-0.119873046875,0.9345703125,0.12158203125,11.291502952575684,24.566648483276367,-16.571043014526367,73.33333587646484,436.0,1.0,WarmUp
336343.875,342526.90625,711487.5,711277.875,711420.8125,364412.21875,536807.125,711848.1875,-0.1240234375,0.931396484375,0.120361328125,11.962889671325684,24.627683639526367,-15.777586936950684,73.33333587646484,437.0,1.0,WarmUp
336992.625,343014.1875,711536.0,711326.5,711469.3125,365017.40625,536851.1875,711896.9375,-0.1279296875,0.93017578125,0.12060546875,12.481688499450684,24.536130905151367,-15.228270530700684,73.33333587646484,438.0,1.0,WarmUp
337331.46875,343361.625,711574.8125,711364.9375,711507.625,365696.71875,536961.375,711935.9375,-0.130859375,0.928466796875,0.121337890625,12.878417015075684,24.536130905151367,-14.862059593200684,73.33333587646484,439.0,1.0,WarmUp
336855.90625,343028.5625,711528.125,711318.3125,711461.0625,365165.46875,536365.375,711888.8125,-0.13037109375,0.927978515625,0.12060546875,13.244627952575684,24.383543014526367,-14.495848655700684,73.33333587646484,440.0,1.0,WarmUp
336240.78125,342492.03125,711467.75,711257.6875,711401.0,363914.21875,535368.75,711828.5,-0.12744140625,0.923828125,0.123779296875,13.641356468200684,24.230955123901367,-14.251708030700684,73.33333587646484,441.0,1.0,WarmUp
336336.28125,342480.6875,711473.9375,711264.125,711407.6875,363393.59375,534794.0625,711835.0625,-0.121337890625,0.914794921875,0.1259765625,13.977049827575684,24.139402389526367,-14.007567405700684,73.33333587646484,442.0,1.0,WarmUp
336997.34375,342978.875,711523.625,711314.1875,711457.6875,364022.40625,534856.6875,711885.0625,-0.11376953125,0.906005859375,0.126220703125,14.434813499450684,24.139402389526367,-13.641356468200684,73.33333587646484,443.0,1.0,WarmUp
337336.03125,343324.0625,711556.375,711346.8125,711489.875,364725.3125,534976.0,711917.6875,-0.108154296875,0.895263671875,0.1259765625,14.953612327575684,24.383543014526367,-13.183592796325684,73.33333587646484,444.0,1.0,WarmUp
336867.28125,343005.9375,711517.5,711307.0,711450.4375,364296.15625,534457.125,711878.3125,-0.105224609375,0.889404296875,0.13134765625,15.716551780700684,24.688718795776367,-12.878417015075684,73.33333587646484,445.0,1.0,WarmUp
336284.25,342505.28125,711470.875,711261.5,711404.375,363180.375,533568.0,711832.375,-0.10888671875,0.887939453125,0.1337890625,16.510007858276367,24.932859420776367,-12.725829124450684,73.33333587646484,446.0,1.0,WarmUp
336425.40625,342543.28125,711489.0625,711280.0,711423.0,362788.15625,533102.4375,711850.5,-0.1103515625,0.8857421875,0.13427734375,17.303464889526367,25.115964889526367,-12.481688499450684,73.33333587646484,447.0,1.0,WarmUp
337096.96875,343057.4375,711544.3125,711334.625,711478.0625,363498.9375,533233.4375,711905.4375,-0.114990234375,0.89013671875,0.134521484375,18.005369186401367,25.268552780151367,-12.359618186950684,73.33333587646484,448.0,1.0,WarmUp
337417.65625,343382.4375,711574.875,711365.3125,711508.25,364237.4375,533374.0625,711935.9375,-0.1171875,0.894775390625,0.13330078125,18.463132858276367,25.360105514526367,-12.237547874450684,73.33333587646484,449.0,1.0,WarmUp
336961.40625,343088.03125,711539.0,711329.4375,711472.25,363877.375,532901.3125,711900.125,-0.11767578125,0.896728515625,0.1337890625,18.798826217651367,25.451658248901367,-12.176512718200684,73.33333587646484,450.0,1.0,WarmUp
336372.40625,342606.3125,711496.5625,711287.1875,711430.3125,362824.4375,532059.25,711857.9375,-0.11962890625,0.9033203125,0.133056640625,19.500730514526367,25.512693405151367,-11.932372093200684,73.33333587646484,451.0,1.0,WarmUp
336457.59375,342608.375,711514.6875,711305.4375,711448.625,362430.34375,531591.9375,711876.1875,-0.118896484375,0.913330078125,0.1328125,20.050046920776367,25.543210983276367,-11.901854515075684,73.33333587646484,452.0,1.0,WarmUp
337092.40625,343080.78125,711560.125,711350.5625,711493.6875,363099.1875,531681.0625,711921.5,-0.118408203125,0.926513671875,0.131591796875,20.568845748901367,25.573728561401367,-11.627196311950684,73.33333587646484,453.0,1.0,WarmUp
337435.625,343431.25,711591.75,711381.875,711525.1875,363865.0625,531842.375,711952.8125,-0.11962890625,0.939208984375,0.128173828125,20.904539108276367,25.543210983276367,-11.413573265075684,73.33333587646484,454.0,1.0,WarmUp
336986.375,343143.375,711553.0625,711343.0625,711486.1875,363527.1875,531383.125,711913.75,-0.117919921875,0.95361328125,0.127197265625,21.179197311401367,25.665281295776367,-11.352538108825684,73.33333587646484,455.0,1.0,WarmUp
336378.46875,342623.28125,711493.5,711283.75,711427.0,362430.78125,530497.9375,711854.625,-0.113525390625,0.96484375,0.12890625,21.240232467651367,25.878904342651367,-11.108397483825684,73.33333587646484,456.0,1.0,WarmUp
336442.3125,342594.40625,711497.5625,711288.4375,711431.75,361984.65625,530000.8125,711859.4375,-0.107177734375,0.975341796875,0.12646484375,21.240232467651367,26.123044967651367,-10.986327171325684,73.33333587646484,457.0,1.0,WarmUp
337081.03125,343075.25,711545.4375,711336.375,711479.375,362625.25,530101.625,711907.5,-0.100341796875,0.983642578125,0.12744140625,21.270750045776367,26.519773483276367,-10.772704124450684,73.33333587646484,458.0,1.0,WarmUp
337406.125,343388.625,711556.9375,711347.5,711490.5,363294.46875,530201.375,711918.9375,-0.093017578125,0.991455078125,0.127197265625,21.118162155151367,27.130125045776367,-10.345458030700684,73.33333587646484,459.0,1.0,WarmUp
336994.59375,343134.625,711521.125,711311.75,711454.625,362958.71875,529770.6875,711883.25,-0.084716796875,0.994384765625,0.1279296875,20.996091842651367,27.893064498901367,-10.101317405700684,73.33333587646484,460.0,1.0,WarmUp
336422.1875,342668.34375,711477.0,711267.75,711410.8125,361919.375,528964.625,711839.5,-0.07861328125,0.99658203125,0.130859375,21.148679733276367,28.808591842651367,-9.735106468200684,73.33333587646484,461.0,1.0,WarmUp
336490.34375,342643.5,711481.875,711272.125,711415.3125,361470.90625,528487.0625,711844.1875,-0.077392578125,0.993896484375,0.131591796875,21.240232467651367,29.846189498901367,-9.368895530700684,73.33333587646484,462.0,1.0,WarmUp
337119.40625,343111.4375,711527.5625,711317.75,711461.0625,362098.28125,528597.4375,711889.875,-0.076904296875,0.990478515625,0.1337890625,21.301267623901367,30.700681686401367,-9.155272483825684,73.33333587646484,463.0,1.0,WarmUp
337488.375,343480.15625,711564.625,711355.125,711498.0625,362854.9375,528791.875,711926.9375,-0.076171875,0.983154296875,0.13623046875,21.514890670776367,31.738279342651367,-8.941649436950684,73.33333587646484,464.0,1.0,WarmUp
337075.84375,343231.4375,711535.75,711326.6875,711469.5625,362563.90625,528401.1875,711898.5625,-0.073974609375,0.97216796875,0.134765625,22.033689498901367,32.989498138427734,-8.697508811950684,73.33333587646484,465.0,1.0,WarmUp
336480.125,342740.15625,711488.3125,711279.125,711422.375,361523.46875,527590.75,711851.25,-0.07421875,0.959716796875,0.134033203125,22.583005905151367,34.210201263427734,-8.270262718200684,73.33333587646484,466.0,1.0,WarmUp
336501.6875,342676.3125,711482.1875,711272.0,711415.625,361012.34375,527062.375,711844.375,-0.07861328125,0.9501953125,0.13037109375,23.193357467651367,35.369869232177734,-7.843017101287842,73.33333587646484,467.0,1.0,WarmUp
337117.34375,343153.46875,711536.625,711326.75,711470.1875,361601.25,527160.3125,711899.0,-0.08154296875,0.940185546875,0.127685546875,23.956296920776367,36.346431732177734,-7.354735851287842,73.33333587646484,468.0,1.0,WarmUp
337469.5,343514.78125,711577.3125,711367.375,711510.625,362291.75,527325.75,711939.5625,-0.08349609375,0.93017578125,0.12353515625,25.115964889526367,37.170406341552734,-6.866454601287842,73.33333587646484,469.0,1.0,WarmUp
337046.625,343250.46875,711548.3125,711338.5625,711481.75,361917.0625,526884.0,711910.4375,-0.088623046875,0.925537109375,0.121826171875,26.489255905151367,38.085933685302734,-6.561278820037842,73.33333587646484,470.0,1.0,WarmUp
336425.78125,342735.21875,711492.5625,711283.3125,711426.1875,360795.09375,526017.5625,711855.0,-0.095458984375,0.92529296875,0.11767578125,27.923582077026367,38.726802825927734,-6.164550304412842,73.33333587646484,471.0,1.0,WarmUp
336463.6875,342684.34375,711492.375,711282.9375,711426.0,360260.96875,525486.6875,711855.1875,-0.1015625,0.92626953125,0.11328125,29.510496139526367,39.276119232177734,-5.828856945037842,73.33333587646484,472.0,1.0,WarmUp
337117.34375,343176.0,711549.75,711339.9375,711483.3125,360834.96875,525581.6875,711912.3125,-0.106201171875,0.931884765625,0.10595703125,31.005857467651367,39.703365325927734,-5.523681163787842,73.33333587646484,473.0,1.0,WarmUp
337459.3125,343510.46875,711578.75,711368.875,711512.0,361490.75,525711.0625,711941.1875,-0.11083984375,0.936767578125,0.097412109375,32.501216888427734,39.916988372802734,-5.371093273162842,73.33333587646484,474.0,1.0,WarmUp
337042.78125,343244.3125,711541.875,711332.125,711475.375,361139.3125,525279.5,711904.6875,-0.111083984375,0.94775390625,0.086669921875,33.782955169677734,40.100093841552734,-5.126952648162842,73.33333587646484,475.0,1.0,WarmUp
336468.6875,342776.0,711495.75,711286.0,711429.5,360108.78125,524493.4375,711858.6875,-0.108642578125,0.958251953125,0.078857421875,35.095211029052734,40.100093841552734,-4.699706554412842,73.33333587646484,476.0,1.0,WarmUp
336504.46875,342731.84375,711497.4375,711287.625,711430.9375,359619.28125,524005.28125,711860.0625,-0.10546875,0.971435546875,0.06884765625,36.285396575927734,40.069576263427734,-4.394530773162842,73.33333587646484,477.0,1.0,WarmUp
337097.3125,343177.4375,711543.9375,711334.3125,711477.5,360161.1875,524075.65625,711906.75,-0.10302734375,0.98583984375,0.0546875,37.445064544677734,39.947505950927734,-4.119872570037842,73.33333587646484,478.0,1.0,WarmUp
337443.0625,343521.21875,711574.25,711364.6875,711507.625,360826.71875,524211.71875,711937.0,-0.103515625,1.004150390625,0.042236328125,38.452144622802734,39.825435638427734,-3.845214605331421,73.33333587646484,479.0,1.0,WarmUp
337038.3125,343279.09375,711544.6875,711335.0,711478.0625,360505.125,523802.96875,711907.5625,-0.103515625,1.020751953125,0.028564453125,39.276119232177734,39.642330169677734,-3.570556402206421,73.33333587646484,480.0,1.0,WarmUp
336424.71875,342785.46875,711491.3125,711281.625,711425.125,359439.125,522977.90625,711854.0,-0.105712890625,1.0380859375,0.0146484375,39.886470794677734,39.428707122802734,-3.112792730331421,73.33333587646484,481.0,1.0,WarmUp
336428.1875,342716.0,711487.625,711278.4375,711422.0625,358881.3125,522429.6875,711850.875,-0.1064453125,1.05419921875,0.002197265625,40.130611419677734,39.031978607177734,-2.746581792831421,73.33333587646484,482.0,1.0,WarmUp
337000.3125,343137.375,711530.5625,711321.3125,711464.9375,359334.15625,522422.25,711893.625,-0.107666015625,1.068603515625,-0.01025390625,40.222164154052734,38.604732513427734,-2.502441167831421,73.33333587646484,483.0,1.0,WarmUp
337347.5625,343475.34375,711561.375,711351.8125,711495.25,359942.125,522508.34375,711924.125,-0.111328125,1.08251953125,-0.020751953125,40.252681732177734,38.024898529052734,-2.288818120956421,73.33333587646484,484.0,1.0,WarmUp
336969.0,343236.34375,711532.6875,711323.1875,711466.625,359601.0625,522078.75,711895.5,-0.11328125,1.093994140625,-0.0361328125,40.130611419677734,37.292476654052734,-2.227782964706421,73.33333587646484,485.0,1.0,WarmUp
336379.375,342744.0,711484.0625,711274.375,711417.875,358544.875,521259.96875,711846.875,-0.11328125,1.10595703125,-0.04638671875,39.978023529052734,36.682125091552734,-2.044677495956421,73.33333587646484,486.0,1.0,WarmUp
336387.15625,342669.96875,711479.8125,711270.375,711413.875,357982.6875,520709.3125,711842.625,-0.115966796875,1.11279296875,-0.055419921875,39.428707122802734,36.041255950927734,-1.7700194120407104,73.33333587646484,487.0,1.0,WarmUp
336985.28125,343114.03125,711528.1875,711318.9375,711462.25,358442.25,520729.5,711891.375,-0.116455078125,1.115478515625,-0.0712890625,38.543697357177734,34.851070404052734,-1.3732908964157104,73.33333587646484,488.0,1.0,WarmUp
337339.59375,343453.4375,711561.1875,711351.8125,711495.0625,359032.6875,520814.8125,711924.625,-0.11328125,1.11474609375,-0.090087890625,37.719722747802734,33.813472747802734,-0.9765624403953552,73.33333587646484,489.0,1.0,WarmUp
336969.625,343227.9375,711533.375,711323.75,711467.4375,358713.34375,520398.15625,711896.75,-0.112060546875,1.111328125,-0.105712890625,37.231441497802734,32.836910247802734,-0.6103515028953552,73.33333587646484,490.0,1.0,WarmUp
336408.0,342768.75,711485.5,711275.8125,711419.5625,357703.3125,519611.5625,711849.0,-0.109619140625,1.10888671875,-0.1171875,36.621089935302734,31.768796920776367,-0.1831054538488388,73.33333587646484,491.0,1.0,WarmUp
336437.84375,342718.15625,711487.625,711277.9375,711422.0,357183.5625,519110.53125,711851.3125,-0.10888671875,1.104248046875,-0.1337890625,36.132808685302734,30.609128952026367,0.1831054538488388,73.33333587646484,492.0,1.0,WarmUp
337024.34375,343150.0625,711536.4375,711326.6875,711470.625,357649.28125,519150.84375,711900.0625,-0.106689453125,1.10205078125,-0.14404296875,35.766597747802734,29.418943405151367,0.5493163466453552,73.33333587646484,493.0,1.0,WarmUp
337376.1875,343481.15625,711567.5625,711357.875,711501.1875,358251.8125,519259.9375,711931.0,-0.102783203125,1.0986328125,-0.15869140625,35.552974700927734,28.259275436401367,1.0070799589157104,73.33333587646484,494.0,1.0,WarmUp
337033.125,343270.96875,711544.5625,711334.75,711478.3125,357981.625,518899.4375,711908.125,-0.101806640625,1.093994140625,-0.17236328125,35.278316497802734,27.221677780151367,1.3122557401657104,73.33333587646484,495.0,1.0,WarmUp
336487.75,342822.75,711503.0625,711293.4375,711437.4375,357030.78125,518183.65625,711866.8125,-0.10205078125,1.092529296875,-0.18359375,35.034175872802734,25.970457077026367,1.5869139432907104,73.33333587646484,496.0,1.0,WarmUp
336509.1875,342761.6875,711502.9375,711293.1875,711436.6875,356544.9375,517732.9375,711866.375,-0.099609375,1.0927734375,-0.197265625,34.790035247802734,24.780271530151367,1.8005369901657104,73.33333587646484,497.0,1.0,WarmUp
337092.40625,343180.75,711549.6875,711339.625,711483.0,357041.6875,517819.84375,711913.0,-0.09814453125,1.0888671875,-0.206787109375,34.759517669677734,23.620603561401367,2.075195074081421,73.33333587646484,498.0,1.0,WarmUp
337456.28125,343515.5625,711580.4375,711370.5625,711514.0625,357712.0625,517999.375,711944.3125,-0.0966796875,1.0869140625,-0.216796875,34.484859466552734,22.369382858276367,2.105712652206421,73.33333587646484,499.0,1.0,WarmUp
337122.34375,343311.09375,711554.9375,711345.0,711488.875,357528.78125,517719.71875,711918.625,-0.094482421875,1.086669921875,-0.226318359375,34.393306732177734,21.240232467651367,2.227782964706421,73.33333587646484,500.0,1.0,WarmUp
336584.375,342874.53125,711513.0,711303.25,711447.5,356681.375,517100.03125,711876.8125,-0.08837890625,1.08447265625,-0.2392578125,33.905025482177734,19.958494186401367,2.227782964706421,73.33333587646484,501.0,1.0,WarmUp
336605.21875,342821.0625,711513.8125,711304.3125,711448.3125,356278.0625,516736.25,711878.125,-0.081787109375,1.081298828125,-0.250244140625,33.477779388427734,18.615720748901367,2.380370855331421,73.33333587646484,502.0,1.0,WarmUp
337191.09375,343246.09375,711564.125,711354.5,711498.375,356855.625,516905.84375,711928.1875,-0.075927734375,1.077880859375,-0.259521484375,33.264156341552734,17.578123092651367,2.502441167831421,73.33333587646484,503.0,1.0,WarmUp
337553.46875,343568.78125,711592.5625,711382.375,711526.5,357603.625,517149.21875,711955.9375,-0.06982421875,1.074462890625,-0.268798828125,32.928462982177734,16.479490280151367,2.563476324081421,73.33333587646484,504.0,1.0,WarmUp
337245.625,343389.0625,711571.75,711361.75,711505.5,357549.0625,516968.0625,711935.125,-0.059326171875,1.0693359375,-0.27685546875,32.653804779052734,15.411375999450684,2.441406011581421,73.33333587646484,505.0,1.0,WarmUp
336727.4375,342971.09375,711534.1875,711324.5625,711468.5,356840.53125,516455.3125,711898.25,-0.051513671875,1.06494140625,-0.28515625,32.379146575927734,14.465331077575684,2.471923589706421,73.33333587646484,506.0,1.0,WarmUp
336735.125,342896.59375,711531.5,711321.3125,711465.25,356526.875,516154.71875,711895.5625,-0.046142578125,1.0615234375,-0.291259765625,32.165523529052734,13.763426780700684,2.471923589706421,73.33333587646484,507.0,1.0,WarmUp
337304.125,343299.03125,711577.75,711367.875,711511.75,357158.375,516358.9375,711942.0,-0.04248046875,1.0576171875,-0.300537109375,31.738279342651367,13.061522483825684,2.563476324081421,73.33333587646484,508.0,1.0,WarmUp
337671.5,343633.21875,711609.1875,711399.75,711543.5,357967.9375,516652.28125,711973.375,-0.03857421875,1.052490234375,-0.3095703125,31.311033248901367,12.420653343200684,2.441406011581421,73.33333587646484,509.0,1.0,WarmUp
337360.875,343447.4375,711585.5,711375.6875,711519.8125,357955.5,516500.5625,711949.5,-0.037353515625,1.053955078125,-0.31591796875,30.883787155151367,11.840819358825684,2.441406011581421,73.33333587646484,510.0,1.0,WarmUp
336827.03125,343010.78125,711541.875,711332.0625,711476.0,357260.5625,515992.28125,711906.0625,-0.037841796875,1.052734375,-0.323486328125,30.303953170776367,11.291502952575684,2.380370855331421,73.33333587646484,511.0,1.0,WarmUp
336814.78125,342920.21875,711535.4375,711325.1875,711468.9375,356958.90625,515695.71875,711899.1875,-0.039794921875,1.0537109375,-0.3271484375,29.693601608276367,10.650633811950684,2.380370855331421,73.33333587646484,512.0,1.0,WarmUp
337360.15625,343309.3125,711576.875,711366.75,711510.4375,357614.34375,515909.21875,711940.4375,-0.038818359375,1.052734375,-0.331787109375,29.113767623901367,10.070799827575684,2.380370855331421,73.33333587646484,513.0,1.0,WarmUp
337734.15625,343645.65625,711610.375,711400.0,711543.6875,358479.25,516233.21875,711973.8125,-0.0400390625,1.05224609375,-0.33154296875,28.350828170776367,9.429930686950684,2.380370855331421,73.33333587646484,514.0,1.0,WarmUp
337435.71875,343472.9375,711589.875,711380.25,711523.8125,358537.28125,516130.78125,711953.5,-0.041748046875,1.053466796875,-0.335693359375,27.435300827026367,8.789061546325684,2.166747808456421,73.33333587646484,515.0,1.0,WarmUp
336894.53125,343034.125,711547.625,711337.875,711481.625,357878.8125,515656.28125,711911.5,-0.04736328125,1.050048828125,-0.334716796875,26.245115280151367,8.117674827575684,1.8920897245407104,73.33333587646484,516.0,1.0,WarmUp
336878.4375,342954.46875,711543.75,711333.75,711477.625,357586.4375,515381.1875,711907.5625,-0.0517578125,1.045166015625,-0.333984375,25.054929733276367,7.324218273162842,1.6479490995407104,73.33333587646484,517.0,1.0,WarmUp
337395.40625,343323.34375,711581.125,711371.0625,711515.0625,358178.75,515563.40625,711945.125,-0.05224609375,1.036376953125,-0.334716796875,23.773191452026367,6.469726085662842,1.4038084745407104,73.33333587646484,518.0,1.0,WarmUp
337707.34375,343607.84375,711604.125,711393.5625,711537.5,358919.78125,515802.375,711967.375,-0.05419921875,1.02294921875,-0.33642578125,22.338865280151367,5.737304210662842,1.1901854276657104,73.33333587646484,519.0,1.0,WarmUp
337395.3125,343430.46875,711582.75,711372.625,711516.4375,358885.09375,515638.125,711946.5625,-0.058837890625,1.0068359375,-0.336181640625,20.874021530151367,4.943847179412842,0.9460448622703552,73.33333587646484,520.0,1.0,WarmUp
336846.625,342989.0625,711540.8125,711330.8125,711474.8125,358146.75,515106.625,711904.4375,-0.05908203125,0.991455078125,-0.340087890625,19.592283248901367,4.150390148162842,0.5187987685203552,73.33333587646484,521.0,1.0,WarmUp
336810.5,342875.40625,711533.5,711323.5625,711467.9375,357752.21875,514763.90625,711897.375,-0.06005859375,0.976318359375,-0.345947265625,18.463132858276367,3.234863042831421,0.1831054538488388,73.33333587646484,522.0,1.0,WarmUp
337310.46875,343216.25,711567.625,711357.625,711501.9375,358242.5,514886.6875,711931.6875,-0.0595703125,0.96240234375,-0.352294921875,17.456052780151367,2.563476324081421,-0.1220703050494194,73.33333587646484,523.0,1.0,WarmUp
337649.40625,343519.15625,711593.375,711383.5625,711527.6875,358938.46875,515108.84375,711957.875,-0.05859375,0.9501953125,-0.356689453125,16.662595748901367,1.8005369901657104,-0.3967284858226776,73.33333587646484,524.0,1.0,WarmUp
337363.3125,343344.1875,711573.0625,711363.1875,711506.9375,358899.21875,514949.96875,711937.0,-0.056396484375,0.93994140625,-0.359130859375,15.899657249450684,0.9765624403953552,-0.7324218153953552,73.33333587646484,525.0,1.0,WarmUp
336861.28125,342930.125,711537.5,711327.9375,711471.5,358221.9375,514478.0,711901.5,-0.055419921875,0.931396484375,-0.360595703125,15.228270530700684,0.1831054538488388,-0.8850097060203552,73.33333587646484,526.0,1.0,WarmUp
