EEG 1,EEG 2,EEG 3,EEG 4,EEG 5,EEG 6,EEG 7,EEG 8,Accelerometer X,Accelerometer Y,Accelerometer Z,Gyroscope X,Gyroscope Y,Gyroscope Z,Battery Level,Counter,Validation Indicator,State
-43520.99609375,-27854.119140625,135249.34375,180892.140625,-113796.8515625,73682.9765625,-171679.46875,179641.25,0.5458984375,0.679931640625,0.489501953125,0.0,0.0,0.0,66.66667175292969,1.0,1.0,WarmUp
17312.41015625,214.39794921875,858.2175903320312,-5129.904296875,-13925.1376953125,853.2108154296875,-4014.6416015625,2019.6142578125,0.548583984375,0.687255859375,0.48828125,0.0,0.0,0.0,66.66667175292969,2.0,1.0,WarmUp
-1380.7120361328125,93.51970672607422,159.59146118164062,-22493.8125,-32819.15625,119.62654113769531,0.0,2047.866943359375,0.551513671875,0.687255859375,0.488037109375,0.0,0.0,0.0,66.66667175292969,3.0,1.0,WarmUp
-4093.677490234375,82.52264404296875,-693.4405517578125,-6755.94921875,-7984.580078125,324.45794677734375,0.0,300.8544921875,0.55419921875,0.688720703125,0.488037109375,0.0,0.0,0.0,66.66667175292969,4.0,1.0,WarmUp
-3722.638427734375,-704.1693725585938,-2470.2255859375,-237.6437530517578,-793.5763549804688,377.9233093261719,-29.325490951538086,-62.04844665527344,0.555419921875,0.687744140625,0.48681640625,0.0,0.0,0.0,66.66667175292969,5.0,1.0,WarmUp
-3007.919189453125,-918.2991333007812,-2521.9921875,53.10774612426758,-965.5059814453125,493.34771728515625,-2341.74755859375,778.4666137695312,0.5556640625,0.691650390625,0.48388671875,0.0,0.0,0.0,66.66667175292969,6.0,1.0,WarmUp
-1333.1474609375,-357.2702941894531,-1800.5672607421875,670.9993896484375,-883.1621704101562,765.4131469726562,-11705.7880859375,1431.6739501953125,0.5546875,0.692626953125,0.48291015625,-5.310058116912842,-4.486083507537842,-5.371093273162842,66.66667175292969,7.0,1.0,WarmUp
2861.381103515625,418.245849609375,-1269.5791015625,2225.876220703125,-558.6148071289062,2594.501220703125,-6084.234375,6066.0849609375,0.551513671875,0.6923828125,0.484619140625,-1.5258787870407104,-1.7700194120407104,-1.6784666776657104,66.66667175292969,8.0,1.0,WarmUp
3046.095947265625,1167.476318359375,-530.093994140625,1345.6644287109375,-441.4916687011719,5643.9052734375,-1682.28173828125,17568.203125,0.5517578125,0.6923828125,0.48291015625,-0.5798339247703552,-1.1291502714157104,-0.6713866591453552,66.66667175292969,9.0,1.0,WarmUp
-866.4430541992188,-241.13063049316406,-758.1712036132812,-1267.9698486328125,-949.14453125,-9.119512557983398,-1336.813232421875,3179.4912109375,0.5498046875,0.691162109375,0.48388671875,-0.3051757514476776,-0.9155272841453552,-0.3967284858226776,66.66667175292969,10.0,1.0,WarmUp
-958.8004760742188,-900.417724609375,-788.4801635742188,-1150.489013671875,-830.054443359375,-859.5587158203125,-966.6682739257812,-554.3233032226562,0.550537109375,0.688232421875,0.484130859375,-0.1220703050494194,-0.8239745497703552,-0.2136230319738388,66.66667175292969,11.0,1.0,WarmUp
-705.0634765625,-719.3685913085938,-467.9561462402344,-818.8785400390625,-629.7827758789062,-626.4747314453125,-731.8855590820312,-375.2410888671875,0.55126953125,0.686767578125,0.484375,-0.0610351525247097,-0.7934569716453552,-0.2746581733226776,66.66667175292969,12.0,1.0,WarmUp
-632.7332153320312,-612.4378051757812,-386.2381591796875,-762.8203735351562,-641.5845336914062,-575.6915283203125,-636.6671142578125,-278.2345275878906,0.551513671875,0.6884765625,0.4833984375,-0.0915527269244194,-0.9460448622703552,-0.1831054538488388,66.66667175292969,13.0,1.0,WarmUp
-596.9703979492188,-629.5145874023438,-363.975830078125,-862.4197387695312,-765.9495849609375,-656.5154418945312,-598.758544921875,-288.24810791015625,0.5517578125,0.68896484375,0.479736328125,-0.0915527269244194,-0.8544921278953552,-0.2746581733226776,66.66667175292969,14.0,1.0,WarmUp
-527.3223876953125,-635.3259887695312,-299.87103271484375,-869.8405151367188,-785.4403076171875,-660.628173828125,-532.597412109375,-287.5328674316406,0.55224609375,0.6904296875,0.47998046875,-0.03051757626235485,-0.8239745497703552,-0.0915527269244194,66.66667175292969,15.0,1.0,WarmUp
-572.472900390625,-472.33709716796875,-209.3911590576172,-528.0376586914062,-592.0530395507812,-471.4430236816406,-495.04644775390625,-259.727294921875,0.551025390625,0.68994140625,0.482421875,-0.1525878757238388,-0.6713866591453552,-0.1220703050494194,66.66667175292969,16.0,1.0,WarmUp
-417.08355712890625,-385.25469970703125,-172.91310119628906,-407.6064453125,-415.8318786621094,-367.373291015625,-374.4364318847656,-195.44366455078125,0.552001953125,0.6875,0.479736328125,-0.1831054538488388,-0.7934569716453552,-0.1831054538488388,66.66667175292969,17.0,1.0,WarmUp
-129.1036834716797,-325.08380126953125,-132.94818115234375,-316.85833740234375,-249.0878448486328,-416.10009765625,-264.823486328125,-178.0987091064453,0.552978515625,0.6875,0.4814453125,-0.2136230319738388,-0.8239745497703552,-0.2441406100988388,66.66667175292969,18.0,1.0,WarmUp
-193.20848083496094,-278.05572509765625,-107.55660247802734,-246.4056396484375,-198.6623077392578,-301.3015441894531,-217.7060089111328,-164.0618133544922,0.55126953125,0.6884765625,0.484619140625,-0.1525878757238388,-0.8239745497703552,-0.1831054538488388,66.66667175292969,19.0,1.0,WarmUp
-203.75851440429688,-257.6709289550781,-97.72183227539062,-232.72637939453125,-178.00930786132812,-229.50772094726562,-217.25897216796875,-139.38548278808594,0.55224609375,0.68798828125,0.484375,-0.03051757626235485,-0.8850097060203552,-0.1525878757238388,66.66667175292969,20.0,1.0,WarmUp
-191.2415313720703,-246.49505615234375,-92.53622436523438,-224.94796752929688,-167.99571228027344,-212.87802124023438,-209.8381805419922,-137.1503143310547,0.55078125,0.689453125,0.481689453125,-0.03051757626235485,-0.7629393935203552,-0.1220703050494194,66.66667175292969,21.0,1.0,WarmUp
-185.60890197753906,-239.3424835205078,-89.5857925415039,-217.43777465820312,-165.0452880859375,-206.61953735351562,-202.6856231689453,-134.0210723876953,0.552490234375,0.6904296875,0.4814453125,-0.0610351525247097,-0.8544921278953552,-0.1220703050494194,66.66667175292969,22.0,1.0,WarmUp
-180.6020965576172,-232.72637939453125,-87.17180633544922,-210.64285278320312,-161.55841064453125,-201.25511169433594,-197.41061401367188,-130.8024139404297,0.554443359375,0.68896484375,0.4814453125,-0.03051757626235485,-0.7324218153953552,-0.1831054538488388,66.66667175292969,23.0,1.0,WarmUp
-176.22116088867188,-226.8255157470703,-85.02603912353516,-205.27842712402344,-158.42916870117188,-196.33773803710938,-192.76145935058594,-128.7460479736328,0.55322265625,0.690185546875,0.481689453125,0.0,-0.7324218153953552,-0.1831054538488388,66.66667175292969,24.0,1.0,WarmUp
-172.466064453125,-221.55050659179688,-83.05908966064453,-200.00341796875,-155.92578125,-191.956787109375,-188.02288818359375,-126.42147064208984,0.552978515625,0.68994140625,0.479248046875,0.0915527269244194,-0.7324218153953552,-0.1525878757238388,66.66667175292969,25.0,1.0,WarmUp
-168.71096801757812,-216.0966796875,-81.00272369384766,-195.08602905273438,-153.5117950439453,-187.9334716796875,-184.08897399902344,-124.00748443603516,0.552734375,0.6884765625,0.484130859375,-0.03051757626235485,-0.6713866591453552,-0.1831054538488388,66.66667175292969,26.0,1.0,WarmUp
-165.49232482910156,-211.62632751464844,-79.39340209960938,-191.06271362304688,-151.1872100830078,-184.35719299316406,-180.1550750732422,-122.57697296142578,0.552001953125,0.68896484375,0.48388671875,-0.0915527269244194,-0.7324218153953552,-0.0915527269244194,66.66667175292969,27.0,1.0,WarmUp
-162.3630828857422,-207.15597534179688,-77.87348175048828,-187.03941345214844,-148.9520263671875,-181.1385498046875,-176.66819763183594,-120.78883361816406,0.55322265625,0.69140625,0.4814453125,-0.0610351525247097,-0.7019042372703552,-0.1525878757238388,66.66667175292969,28.0,1.0,WarmUp
-159.6808624267578,-203.49029541015625,-76.62178039550781,-183.1949005126953,-146.62745666503906,-177.65167236328125,-173.27073669433594,-119.80535888671875,0.5537109375,0.69140625,0.484619140625,-0.0915527269244194,-0.7629393935203552,-0.1525878757238388,66.66667175292969,29.0,1.0,WarmUp
-157.26687622070312,-199.9140167236328,-75.6383056640625,-180.06565856933594,-144.74990844726562,-174.34361267089844,-170.23089599609375,-118.64306640625,0.552001953125,0.68994140625,0.484619140625,-0.03051757626235485,-0.7324218153953552,-0.1220703050494194,66.66667175292969,30.0,1.0,WarmUp
-154.674072265625,-196.33773803710938,-74.47601318359375,-177.2046356201172,-143.05117797851562,-171.57199096679688,-167.54869079589844,-117.48077392578125,0.552978515625,0.690185546875,0.482421875,-0.0610351525247097,-0.7629393935203552,-0.1831054538488388,66.66667175292969,31.0,1.0,WarmUp
-152.08128356933594,-192.85086059570312,-73.67135620117188,-173.98599243164062,-141.4418487548828,-169.068603515625,-164.9558868408203,-116.76551818847656,0.552001953125,0.689208984375,0.482421875,0.0,-0.7629393935203552,-0.1525878757238388,66.66667175292969,32.0,1.0,WarmUp
-150.2037353515625,-189.45339965820312,-72.59847259521484,-171.12496948242188,-139.83251953125,-166.3863983154297,-162.6313018798828,-115.87145233154297,0.55224609375,0.689697265625,0.482177734375,0.0,-0.7324218153953552,-0.1831054538488388,66.66667175292969,33.0,1.0,WarmUp
-148.32618713378906,-186.59237670898438,-72.06202697753906,-168.71096801757812,-138.2231903076172,-164.3300323486328,-160.12789916992188,-114.79856872558594,0.548828125,0.68896484375,0.48046875,0.0915527269244194,-0.8239745497703552,-0.0610351525247097,66.66667175292969,34.0,1.0,WarmUp
-146.35922241210938,-183.8207550048828,-71.34677124023438,-166.7440185546875,-136.97149658203125,-162.18426513671875,-157.9821319580078,-113.99390411376953,0.550048828125,0.6875,0.482666015625,0.0,-0.8239745497703552,-0.03051757626235485,66.66667175292969,35.0,1.0,WarmUp
-144.66049194335938,-181.31735229492188,-70.98914337158203,-164.50885009765625,-135.8986053466797,-160.21731567382812,-156.19400024414062,-113.18923950195312,0.55126953125,0.686767578125,0.4833984375,0.0,-0.8544921278953552,-0.1525878757238388,66.66667175292969,36.0,1.0,WarmUp
-142.8723602294922,-178.7245635986328,-70.27388763427734,-162.81011962890625,-134.64691162109375,-158.6079864501953,-154.13763427734375,-112.38457489013672,0.55126953125,0.688232421875,0.482421875,-0.0610351525247097,-0.8239745497703552,-0.1831054538488388,66.66667175292969,37.0,1.0,WarmUp
-141.35243225097656,-176.66819763183594,-69.82685089111328,-160.48553466796875,-133.21640014648438,-156.6410369873047,-152.34950256347656,-111.57991027832031,0.5498046875,0.688232421875,0.48046875,-0.03051757626235485,-0.7019042372703552,-0.1525878757238388,66.66667175292969,38.0,1.0,WarmUp
-139.9219207763672,-174.4330291748047,-69.7374496459961,-158.6079864501953,-132.05410766601562,-154.85289001464844,-150.47195434570312,-110.77525329589844,0.548583984375,0.689208984375,0.4814453125,-0.0610351525247097,-0.7629393935203552,-0.0610351525247097,66.66667175292969,39.0,1.0,WarmUp
-138.4914093017578,-172.28726196289062,-69.1115951538086,-157.08807373046875,-131.24945068359375,-153.33297729492188,-149.04144287109375,-110.50702667236328,0.549072265625,0.688720703125,0.484619140625,-0.03051757626235485,-0.7629393935203552,-0.1220703050494194,66.66667175292969,40.0,1.0,WarmUp
-137.32913208007812,-170.6779327392578,-68.84337615966797,-155.65756225585938,-130.087158203125,-152.08128356933594,-147.879150390625,-110.14939880371094,0.54931640625,0.689208984375,0.482666015625,-0.1831054538488388,-0.7934569716453552,-0.1831054538488388,66.66667175292969,41.0,1.0,WarmUp
-136.07742309570312,-168.9792022705078,-68.48574829101562,-154.5846710205078,-129.1036834716797,-150.38253784179688,-146.71685791015625,-109.61296081542969,0.55029296875,0.690185546875,0.481201171875,-0.1220703050494194,-0.6713866591453552,-0.1525878757238388,66.66667175292969,42.0,1.0,WarmUp
-134.736328125,-167.28045654296875,-68.3963394165039,-153.06475830078125,-128.12020874023438,-149.04144287109375,-145.10752868652344,-108.98711395263672,0.552490234375,0.6884765625,0.481201171875,-0.03051757626235485,-0.7324218153953552,-0.1220703050494194,66.66667175292969,43.0,1.0,WarmUp
-133.75283813476562,-165.31350708007812,-68.3963394165039,-151.45542907714844,-127.13672637939453,-147.879150390625,-143.9452362060547,-108.54007720947266,0.553466796875,0.6884765625,0.48583984375,-0.1525878757238388,-0.7934569716453552,-0.1220703050494194,66.66667175292969,44.0,1.0,WarmUp
-132.5011444091797,-163.972412109375,-68.217529296875,-150.2037353515625,-126.15325164794922,-146.8956756591797,-142.8723602294922,-108.0930404663086,0.551025390625,0.69140625,0.485107421875,-0.03051757626235485,-0.7019042372703552,-0.1525878757238388,66.66667175292969,45.0,1.0,WarmUp
-131.60707092285156,-162.54190063476562,-67.85990142822266,-149.39906311035156,-125.52740478515625,-145.6439666748047,-141.62066650390625,-107.3777847290039,0.55322265625,0.69091796875,0.485107421875,-0.03051757626235485,-0.7324218153953552,-0.1831054538488388,66.66667175292969,46.0,1.0,WarmUp
-130.7130126953125,-161.11138916015625,-67.32345581054688,-148.05796813964844,-124.63333129882812,-144.66049194335938,-140.4583740234375,-107.10956573486328,0.552978515625,0.688232421875,0.485595703125,0.0,-0.6408690810203552,-0.2746581733226776,66.66667175292969,47.0,1.0,WarmUp
-129.9977569580078,-159.77027893066406,-67.4128646850586,-146.98507690429688,-124.00748443603516,-143.31939697265625,-139.7431182861328,-106.66252899169922,0.551513671875,0.6875,0.483642578125,0.03051757626235485,-0.7324218153953552,-0.1831054538488388,66.66667175292969,48.0,1.0,WarmUp
-129.1036834716797,-158.6079864501953,-67.4128646850586,-146.09100341796875,-123.47103881835938,-142.42532348632812,-138.67022705078125,-106.30490112304688,0.552978515625,0.689208984375,0.4833984375,0.03051757626235485,-0.7324218153953552,-0.1525878757238388,66.66667175292969,49.0,1.0,WarmUp
-128.2990264892578,-157.44569396972656,-67.4128646850586,-145.01812744140625,-122.8451919555664,-141.62066650390625,-137.59735107421875,-105.6790542602539,0.552001953125,0.689453125,0.483642578125,0.0610351525247097,-0.8239745497703552,-0.1220703050494194,66.66667175292969,50.0,1.0,WarmUp
-127.31554412841797,-156.55162048339844,-66.96582794189453,-144.30287170410156,-122.12993621826172,-140.72659301757812,-136.7926788330078,-105.58964538574219,0.550537109375,0.6884765625,0.481689453125,-0.0915527269244194,-0.7629393935203552,0.0,66.66667175292969,51.0,1.0,WarmUp
-126.51087951660156,-155.47874450683594,-66.87641906738281,-143.40879821777344,-121.50408935546875,-140.01133728027344,-136.25624084472656,-104.96379852294922,0.551025390625,0.689208984375,0.484375,0.0,-0.8544921278953552,-0.0610351525247097,66.66667175292969,52.0,1.0,WarmUp
-126.15325164794922,-154.40585327148438,-66.87641906738281,-142.60414123535156,-120.69942474365234,-139.29608154296875,-135.36216735839844,-104.78498077392578,0.55126953125,0.690185546875,0.48291015625,0.0610351525247097,-0.7934569716453552,-0.1220703050494194,66.66667175292969,53.0,1.0,WarmUp
-125.1697769165039,-153.24356079101562,-66.6976089477539,-141.88888549804688,-120.1629867553711,-138.67022705078125,-134.4680938720703,-104.78498077392578,0.552490234375,0.691650390625,0.48193359375,0.0610351525247097,-0.8239745497703552,-0.03051757626235485,66.66667175292969,54.0,1.0,WarmUp
-124.81214904785156,-152.6177215576172,-66.78701782226562,-141.1736297607422,-119.80535888671875,-137.86557006835938,-133.75283813476562,-104.51676177978516,0.553466796875,0.688232421875,0.483154296875,0.0,-0.8850097060203552,-0.0915527269244194,66.66667175292969,55.0,1.0,WarmUp
-124.45452117919922,-152.08128356933594,-66.6976089477539,-140.4583740234375,-119.35832214355469,-136.97149658203125,-133.21640014648438,-104.24854278564453,0.552734375,0.68701171875,0.481201171875,-0.03051757626235485,-0.7629393935203552,-0.0610351525247097,66.66667175292969,56.0,1.0,WarmUp
-123.5604476928711,-151.276611328125,-66.51879119873047,-139.83251953125,-119.00069427490234,-136.43505859375,-132.67996215820312,-103.80150604248047,0.5517578125,0.688720703125,0.4833984375,-0.0610351525247097,-0.7324218153953552,-0.1831054538488388,66.66667175292969,57.0,1.0,WarmUp
-123.02400970458984,-150.38253784179688,-66.6976089477539,-139.1172637939453,-118.64306640625,-135.8092041015625,-132.23292541503906,-103.44387817382812,0.551513671875,0.687255859375,0.484375,-0.0610351525247097,-0.7629393935203552,-0.1525878757238388,66.66667175292969,58.0,1.0,WarmUp
-122.57697296142578,-149.577880859375,-66.60820007324219,-138.4914093017578,-118.10662078857422,-135.54098510742188,-131.51766967773438,-103.53328704833984,0.548583984375,0.689697265625,0.4853515625,-0.0610351525247097,-0.7934569716453552,-0.1831054538488388,66.66667175292969,59.0,1.0,WarmUp
-122.39815521240234,-148.9520263671875,-66.51879119873047,-138.0443878173828,-117.48077392578125,-135.0939483642578,-131.16004943847656,-103.3544692993164,0.5498046875,0.689697265625,0.484619140625,-0.1525878757238388,-0.7629393935203552,-0.1831054538488388,66.66667175292969,60.0,1.0,WarmUp
-121.95112609863281,-148.14736938476562,-66.60820007324219,-137.5079345703125,-116.85492706298828,-134.4680938720703,-130.44479370117188,-102.90743255615234,0.549072265625,0.688720703125,0.487060546875,-0.0915527269244194,-0.8239745497703552,-0.1831054538488388,66.66667175292969,61.0,1.0,WarmUp
-121.41468048095703,-147.2532958984375,-66.25057220458984,-136.88209533691406,-116.58670806884766,-133.84225463867188,-129.9977569580078,-102.72862243652344,0.552001953125,0.687255859375,0.483642578125,-0.0915527269244194,-0.8544921278953552,-0.1220703050494194,66.66667175292969,62.0,1.0,WarmUp
-120.87824249267578,-146.98507690429688,-66.25057220458984,-136.25624084472656,-116.49729919433594,-133.3952178955078,-129.7295379638672,-102.5498046875,0.551025390625,0.687255859375,0.483154296875,-0.1220703050494194,-0.8850097060203552,-0.0610351525247097,66.66667175292969,63.0,1.0,WarmUp
-120.61001586914062,-146.35922241210938,-66.33998107910156,-135.98802185058594,-116.3184814453125,-132.85877990722656,-129.28250122070312,-102.28158569335938,0.550537109375,0.688720703125,0.485595703125,-0.0610351525247097,-0.7934569716453552,-0.1525878757238388,66.66667175292969,64.0,1.0,WarmUp
-120.1629867553711,-145.91220092773438,-66.07176208496094,-135.63038635253906,-116.05026245117188,-132.23292541503906,-128.65664672851562,-102.10277557373047,0.55126953125,0.6904296875,0.485107421875,-0.1525878757238388,-0.8239745497703552,-0.0610351525247097,66.66667175292969,65.0,1.0,WarmUp
-119.80535888671875,-145.37574768066406,-66.25057220458984,-134.91513061523438,-115.51382446289062,-131.96470642089844,-128.20960998535156,-102.01336669921875,0.55224609375,0.688720703125,0.482177734375,-0.0610351525247097,-0.8544921278953552,-0.1525878757238388,66.66667175292969,66.0,1.0,WarmUp
-119.4477310180664,-144.5710906982422,-66.07176208496094,-134.64691162109375,-114.97737884521484,-131.51766967773438,-127.94139099121094,-101.83454895019531,0.550048828125,0.688720703125,0.481201171875,-0.0915527269244194,-0.8544921278953552,-0.1831054538488388,66.66667175292969,67.0,1.0,WarmUp
-119.09010314941406,-144.12405395507812,-65.98235321044922,-134.64691162109375,-114.79856872558594,-131.4282684326172,-127.40495300292969,-101.74514770507812,0.55029296875,0.689208984375,0.486328125,-0.0915527269244194,-0.7934569716453552,-0.0610351525247097,66.66667175292969,68.0,1.0,WarmUp
-118.73247528076172,-143.8558349609375,-66.07176208496094,-133.93165588378906,-114.6197509765625,-131.0706329345703,-127.22613525390625,-101.6557388305664,0.55029296875,0.6875,0.484375,-0.0915527269244194,-0.7934569716453552,-0.0610351525247097,66.66667175292969,69.0,1.0,WarmUp
-118.37484741210938,-143.49819946289062,-65.8929443359375,-133.3952178955078,-114.44093322753906,-130.44479370117188,-127.13672637939453,-101.6557388305664,0.5498046875,0.6884765625,0.483154296875,-0.03051757626235485,-0.7934569716453552,0.0,66.66667175292969,70.0,1.0,WarmUp
-118.10662078857422,-143.05117797851562,-66.07176208496094,-133.3952178955078,-113.99390411376953,-130.1765594482422,-126.60028839111328,-101.29811096191406,0.550537109375,0.689208984375,0.4833984375,-0.1525878757238388,-0.8850097060203552,-0.0915527269244194,66.66667175292969,71.0,1.0,WarmUp
-117.74899291992188,-142.69354248046875,-65.8929443359375,-133.1269989013672,-113.90449523925781,-129.90834045410156,-126.33206939697266,-101.11929321289062,0.55126953125,0.690185546875,0.48486328125,0.0,-0.8239745497703552,-0.1525878757238388,66.66667175292969,72.0,1.0,WarmUp
-117.65959167480469,-142.2465057373047,-65.80353546142578,-132.5011444091797,-113.72567749023438,-129.64012145996094,-126.0638427734375,-101.20870208740234,0.552978515625,0.687744140625,0.4814453125,0.0610351525247097,-0.9765624403953552,-0.1525878757238388,66.66667175292969,73.0,1.0,WarmUp
-117.48077392578125,-141.79946899414062,-65.80353546142578,-132.32232666015625,-113.45745849609375,-129.3719024658203,-125.70621490478516,-101.11929321289062,0.553466796875,0.688232421875,0.482177734375,0.03051757626235485,-0.9155272841453552,-0.2136230319738388,66.66667175292969,74.0,1.0,WarmUp
-117.21255493164062,-141.62066650390625,-65.8929443359375,-132.14352416992188,-113.27864837646484,-129.0142822265625,-125.52740478515625,-101.02989196777344,0.55224609375,0.689697265625,0.483154296875,0.03051757626235485,-0.8544921278953552,-0.1525878757238388,66.66667175292969,75.0,1.0,WarmUp
-116.85492706298828,-141.35243225097656,-65.80353546142578,-132.05410766601562,-112.83161163330078,-128.65664672851562,-125.34858703613281,-100.94048309326172,0.5517578125,0.690185546875,0.482666015625,0.0915527269244194,-0.7934569716453552,-0.1525878757238388,66.66667175292969,76.0,1.0,WarmUp
-116.58670806884766,-140.99481201171875,-65.35650634765625,-131.87530517578125,-112.65279388427734,-128.4778289794922,-124.90155029296875,-100.58285522460938,0.552978515625,0.68896484375,0.483154296875,-0.03051757626235485,-0.8239745497703552,-0.1831054538488388,66.66667175292969,77.0,1.0,WarmUp
-116.67610931396484,-140.63717651367188,-65.44590759277344,-131.51766967773438,-112.47398376464844,-128.20960998535156,-124.81214904785156,-100.49344635009766,0.552490234375,0.688720703125,0.482666015625,-0.0610351525247097,-0.8850097060203552,-0.0610351525247097,66.66667175292969,78.0,1.0,WarmUp
-116.58670806884766,-140.5477752685547,-65.7141342163086,-131.16004943847656,-112.47398376464844,-127.94139099121094,-124.5439224243164,-100.49344635009766,0.55126953125,0.68798828125,0.483154296875,-0.03051757626235485,-0.8239745497703552,-0.1220703050494194,66.66667175292969,79.0,1.0,WarmUp
-116.22908020019531,-140.27955627441406,-65.80353546142578,-130.89181518554688,-112.295166015625,-127.94139099121094,-124.18629455566406,-100.40403747558594,0.552001953125,0.69091796875,0.481201171875,-0.0915527269244194,-0.8239745497703552,-0.0915527269244194,66.66667175292969,80.0,1.0,WarmUp
-115.69263458251953,-140.19015502929688,-65.7141342163086,-130.62359619140625,-111.93753814697266,-127.67317199707031,-123.91807556152344,-100.22522735595703,0.550048828125,0.691162109375,0.482666015625,-0.0915527269244194,-0.8544921278953552,-0.0915527269244194,66.66667175292969,81.0,1.0,WarmUp
-115.69263458251953,-139.83251953125,-65.7141342163086,-130.44479370117188,-111.93753814697266,-127.31554412841797,-123.73926544189453,-100.22522735595703,0.55126953125,0.689453125,0.48193359375,-0.1220703050494194,-0.8850097060203552,-0.1525878757238388,66.66667175292969,82.0,1.0,WarmUp
-115.60322570800781,-139.4748992919922,-65.62472534179688,-130.26597595214844,-111.84813690185547,-127.13672637939453,-123.73926544189453,-100.13581848144531,0.550537109375,0.69140625,0.4814453125,-0.1220703050494194,-0.8850097060203552,-0.2441406100988388,66.66667175292969,83.0,1.0,WarmUp
-115.51382446289062,-139.4748992919922,-65.53531646728516,-130.087158203125,-111.66931915283203,-127.31554412841797,-123.5604476928711,-99.9570083618164,0.552490234375,0.690185546875,0.48486328125,-0.1525878757238388,-0.9765624403953552,-0.1220703050494194,66.66667175292969,84.0,1.0,WarmUp
-115.4244155883789,-139.29608154296875,-65.62472534179688,-129.90834045410156,-111.4011001586914,-127.04732513427734,-123.29222869873047,-99.77819061279297,0.552978515625,0.689208984375,0.485107421875,-0.2136230319738388,-0.9155272841453552,-0.1220703050494194,66.66667175292969,85.0,1.0,WarmUp
-115.06678771972656,-138.8490447998047,-65.62472534179688,-129.81893920898438,-111.04347229003906,-126.77909851074219,-122.93460083007812,-99.9570083618164,0.55322265625,0.68896484375,0.483642578125,-0.1220703050494194,-0.8850097060203552,-0.2136230319738388,66.66667175292969,86.0,1.0,WarmUp
-114.97737884521484,-138.67022705078125,-65.62472534179688,-129.81893920898438,-111.13288116455078,-126.77909851074219,-122.93460083007812,-99.77819061279297,0.551513671875,0.689453125,0.487060546875,-0.1220703050494194,-0.8239745497703552,-0.1831054538488388,66.66667175292969,87.0,1.0,WarmUp
-114.88796997070312,-138.4914093017578,-65.62472534179688,-129.55072021484375,-111.22228240966797,-126.60028839111328,-122.6663818359375,-99.77819061279297,0.55224609375,0.687744140625,0.484375,-0.0610351525247097,-0.9155272841453552,-0.1831054538488388,66.66667175292969,88.0,1.0,WarmUp
-114.88796997070312,-138.0443878173828,-65.44590759277344,-129.3719024658203,-110.95406341552734,-126.33206939697266,-122.75578308105469,-99.68878173828125,0.5517578125,0.687744140625,0.485595703125,-0.1525878757238388,-0.8544921278953552,-0.2136230319738388,66.66667175292969,89.0,1.0,WarmUp
-114.6197509765625,-138.1337890625,-65.62472534179688,-129.1036834716797,-110.95406341552734,-126.15325164794922,-122.57697296142578,-99.59938049316406,0.54931640625,0.689208984375,0.48681640625,-0.0915527269244194,-0.7934569716453552,-0.1220703050494194,66.66667175292969,90.0,1.0,WarmUp
-114.35153198242188,-137.86557006835938,-65.44590759277344,-128.92486572265625,-110.77525329589844,-125.97444152832031,-122.6663818359375,-99.59938049316406,0.54931640625,0.688720703125,0.487060546875,-0.1220703050494194,-0.9155272841453552,-0.1525878757238388,66.66667175292969,91.0,1.0,WarmUp
-114.35153198242188,-137.68675231933594,-65.35650634765625,-128.92486572265625,-110.68584442138672,-125.79562377929688,-122.48756408691406,-99.59938049316406,0.550537109375,0.688720703125,0.487548828125,-0.0915527269244194,-0.8544921278953552,-0.1831054538488388,66.66667175292969,92.0,1.0,WarmUp
-114.17271423339844,-137.4185333251953,-65.44590759277344,-129.1036834716797,-110.50702667236328,-125.79562377929688,-122.12993621826172,-99.50997161865234,0.55078125,0.6884765625,0.48779296875,-0.0915527269244194,-0.8544921278953552,-0.03051757626235485,66.66667175292969,93.0,1.0,WarmUp
-114.17271423339844,-137.32913208007812,-65.44590759277344,-128.83546447753906,-110.50702667236328,-125.70621490478516,-122.21934509277344,-99.50997161865234,0.5498046875,0.688720703125,0.48583984375,-0.0915527269244194,-0.8850097060203552,-0.0915527269244194,66.66667175292969,94.0,1.0,WarmUp
-113.90449523925781,-137.23971557617188,-65.53531646728516,-128.56724548339844,-110.50702667236328,-125.70621490478516,-122.21934509277344,-99.77819061279297,0.55126953125,0.690185546875,0.483154296875,-0.0610351525247097,-0.8850097060203552,-0.1220703050494194,66.66667175292969,95.0,1.0,WarmUp
-113.90449523925781,-137.4185333251953,-65.35650634765625,-128.4778289794922,-110.14939880371094,-125.34858703613281,-122.04052734375,-99.68878173828125,0.552001953125,0.689453125,0.484375,-0.03051757626235485,-0.8544921278953552,-0.1525878757238388,66.66667175292969,96.0,1.0,WarmUp
-113.90449523925781,-137.23971557617188,-65.17768859863281,-128.388427734375,-109.97058868408203,-125.34858703613281,-121.77230834960938,-99.3311538696289,0.55126953125,0.687744140625,0.485595703125,-0.03051757626235485,-0.7324218153953552,-0.0915527269244194,66.66667175292969,97.0,1.0,WarmUp
-113.72567749023438,-136.88209533691406,-65.35650634765625,-128.388427734375,-109.97058868408203,-125.2591781616211,-121.59349822998047,-99.3311538696289,0.552001953125,0.6884765625,0.4853515625,-0.03051757626235485,-0.7019042372703552,-0.0610351525247097,66.66667175292969,98.0,1.0,WarmUp
-113.99390411376953,-136.61386108398438,-65.44590759277344,-128.20960998535156,-110.05999755859375,-125.34858703613281,-121.68289947509766,-99.3311538696289,0.5517578125,0.69189453125,0.482421875,0.0915527269244194,-0.7934569716453552,-0.0915527269244194,66.66667175292969,99.0,1.0,WarmUp
-113.90449523925781,-136.5244598388672,-65.44590759277344,-128.03079223632812,-109.7917709350586,-125.1697769165039,-121.68289947509766,-99.15234375,0.552978515625,0.689697265625,0.48046875,0.0,-0.7324218153953552,-0.2136230319738388,66.66667175292969,100.0,1.0,WarmUp
-113.63627624511719,-136.61386108398438,-65.35650634765625,-128.03079223632812,-109.7023696899414,-125.08036804199219,-121.68289947509766,-99.15234375,0.550048828125,0.689453125,0.482177734375,0.0,-0.7629393935203552,-0.1220703050494194,66.66667175292969,101.0,1.0,WarmUp
-113.36804962158203,-136.5244598388672,-65.26709747314453,-128.388427734375,-109.7023696899414,-124.90155029296875,-121.68289947509766,-99.06293487548828,0.550537109375,0.68798828125,0.483154296875,-0.03051757626235485,-0.8239745497703552,-0.1525878757238388,66.66667175292969,102.0,1.0,WarmUp
-113.27864837646484,-136.43505859375,-65.26709747314453,-128.12020874023438,-109.88117980957031,-124.90155029296875,-121.59349822998047,-99.06293487548828,0.550048828125,0.687255859375,0.485595703125,-0.0915527269244194,-0.7629393935203552,-0.1220703050494194,66.66667175292969,103.0,1.0,WarmUp
-113.27864837646484,-136.34564208984375,-65.35650634765625,-127.76258087158203,-109.7023696899414,-124.90155029296875,-121.23587036132812,-99.15234375,0.551513671875,0.688720703125,0.485107421875,0.0,-0.8850097060203552,0.0,66.66667175292969,104.0,1.0,WarmUp
-113.27864837646484,-136.5244598388672,-65.17768859863281,-127.67317199707031,-109.7023696899414,-124.90155029296875,-121.1464614868164,-99.06293487548828,0.552978515625,0.6884765625,0.483154296875,-0.03051757626235485,-0.9460448622703552,-0.1220703050494194,66.66667175292969,105.0,1.0,WarmUp
-113.27864837646484,-136.25624084472656,-65.44590759277344,-127.5837631225586,-109.61296081542969,-124.72274017333984,-121.05705261230469,-99.15234375,0.552490234375,0.689453125,0.4833984375,-0.0610351525247097,-0.9765624403953552,-0.1831054538488388,66.66667175292969,106.0,1.0,WarmUp
-113.01042175292969,-136.07742309570312,-65.53531646728516,-127.49435424804688,-109.61296081542969,-124.45452117919922,-121.05705261230469,-98.97352600097656,0.5517578125,0.691650390625,0.48193359375,-0.0915527269244194,-0.7934569716453552,-0.1220703050494194,66.66667175292969,107.0,1.0,WarmUp
-113.18923950195312,-135.98802185058594,-65.44590759277344,-127.31554412841797,-109.61296081542969,-124.45452117919922,-120.96764373779297,-98.88412475585938,0.553466796875,0.690673828125,0.48095703125,-0.0610351525247097,-0.7629393935203552,-0.2136230319738388,66.66667175292969,108.0,1.0,WarmUp
-113.01042175292969,-135.98802185058594,-65.62472534179688,-127.49435424804688,-109.61296081542969,-124.3651123046875,-120.96764373779297,-98.88412475585938,0.55517578125,0.69091796875,0.486328125,-0.0915527269244194,-0.7324218153953552,-0.1831054538488388,66.66667175292969,109.0,1.0,WarmUp
-113.0998306274414,-135.7198028564453,-65.44590759277344,-127.5837631225586,-109.43414306640625,-124.45452117919922,-120.78883361816406,-98.88412475585938,0.552978515625,0.688720703125,0.485595703125,-0.0610351525247097,-0.7934569716453552,-0.2136230319738388,66.66667175292969,110.0,1.0,WarmUp
-112.83161163330078,-135.63038635253906,-65.26709747314453,-127.31554412841797,-109.43414306640625,-124.27570343017578,-120.96764373779297,-98.88412475585938,0.552001953125,0.6904296875,0.4833984375,0.0,-0.7629393935203552,-0.0915527269244194,66.66667175292969,111.0,1.0,WarmUp
-112.9210205078125,-135.63038635253906,-65.35650634765625,-127.31554412841797,-109.43414306640625,-124.18629455566406,-121.05705261230469,-98.79471588134766,0.55029296875,0.6884765625,0.48486328125,-0.0915527269244194,-0.7629393935203552,-0.1831054538488388,66.66667175292969,112.0,1.0,WarmUp
-112.9210205078125,-135.7198028564453,-65.26709747314453,-127.13672637939453,-109.52355194091797,-124.00748443603516,-120.87824249267578,-98.70530700683594,0.54931640625,0.6884765625,0.484375,-0.03051757626235485,-0.8850097060203552,-0.1831054538488388,66.66667175292969,113.0,1.0,WarmUp
-112.83161163330078,-135.63038635253906,-65.17768859863281,-127.04732513427734,-109.34474182128906,-124.09689331054688,-120.78883361816406,-98.88412475585938,0.548095703125,0.68994140625,0.484375,-0.1525878757238388,-0.8239745497703552,-0.0915527269244194,66.66667175292969,114.0,1.0,WarmUp
-112.74220275878906,-135.54098510742188,-64.9988784790039,-127.22613525390625,-109.25533294677734,-123.91807556152344,-120.61001586914062,-98.70530700683594,0.5498046875,0.6884765625,0.48486328125,-0.03051757626235485,-0.7019042372703552,-0.1220703050494194,66.66667175292969,115.0,1.0,WarmUp
-112.83161163330078,-135.54098510742188,-65.0882797241211,-126.95791625976562,-109.25533294677734,-124.00748443603516,-120.61001586914062,-98.70530700683594,0.550537109375,0.68798828125,0.485107421875,-0.1220703050494194,-0.7629393935203552,-0.1525878757238388,66.66667175292969,116.0,1.0,WarmUp
-112.56339263916016,-135.36216735839844,-65.17768859863281,-127.13672637939453,-108.98711395263672,-124.09689331054688,-120.78883361816406,-98.61589813232422,0.551513671875,0.688232421875,0.488037109375,-0.03051757626235485,-0.8239745497703552,-0.1831054538488388,66.66667175292969,117.0,1.0,WarmUp
-112.65279388427734,-135.27276611328125,-65.17768859863281,-126.95791625976562,-108.98711395263672,-124.00748443603516,-120.61001586914062,-98.79471588134766,0.5517578125,0.689453125,0.487548828125,0.0,-0.8544921278953552,-0.1220703050494194,66.66667175292969,118.0,1.0,WarmUp
-112.56339263916016,-135.36216735839844,-65.26709747314453,-127.04732513427734,-108.98711395263672,-123.73926544189453,-120.341796875,-98.97352600097656,0.55224609375,0.68798828125,0.48388671875,-0.0610351525247097,-0.7324218153953552,-0.0915527269244194,66.66667175292969,119.0,1.0,WarmUp
-112.56339263916016,-135.4515838623047,-65.17768859863281,-127.13672637939453,-109.0765151977539,-123.5604476928711,-120.341796875,-98.88412475585938,0.551513671875,0.6904296875,0.48193359375,0.0,-0.7019042372703552,-0.03051757626235485,66.66667175292969,120.0,1.0,WarmUp
-112.56339263916016,-135.36216735839844,-65.44590759277344,-127.22613525390625,-109.0765151977539,-123.91807556152344,-120.43120574951172,-98.52649688720703,0.55224609375,0.690673828125,0.482421875,0.0610351525247097,-0.8850097060203552,-0.03051757626235485,66.66667175292969,121.0,1.0,WarmUp
-112.56339263916016,-135.0939483642578,-65.17768859863281,-126.95791625976562,-109.25533294677734,-123.73926544189453,-120.1629867553711,-98.70530700683594,0.55224609375,0.689697265625,0.4833984375,0.03051757626235485,-0.8544921278953552,-0.1525878757238388,66.66667175292969,122.0,1.0,WarmUp
-112.47398376464844,-135.0939483642578,-65.26709747314453,-126.77909851074219,-109.0765151977539,-123.64985656738281,-120.25238800048828,-98.70530700683594,0.552734375,0.689453125,0.485107421875,-0.03051757626235485,-0.8850097060203552,-0.1525878757238388,66.66667175292969,123.0,1.0,WarmUp
-112.295166015625,-135.36216735839844,-65.35650634765625,-126.689697265625,-108.98711395263672,-123.73926544189453,-120.61001586914062,-98.70530700683594,0.552978515625,0.68798828125,0.484619140625,-0.0610351525247097,-0.8544921278953552,-0.1220703050494194,66.66667175292969,124.0,1.0,WarmUp
-112.295166015625,-135.0939483642578,-65.35650634765625,-126.689697265625,-108.897705078125,-123.64985656738281,-120.43120574951172,-98.52649688720703,0.5517578125,0.687255859375,0.48681640625,0.0,-0.8239745497703552,-0.1525878757238388,66.66667175292969,125.0,1.0,WarmUp
-112.295166015625,-135.183349609375,-65.17768859863281,-126.42147064208984,-108.80829620361328,-123.5604476928711,-120.43120574951172,-98.61589813232422,0.55322265625,0.6875,0.48681640625,-0.1525878757238388,-0.8544921278953552,-0.2441406100988388,66.66667175292969,126.0,1.0,WarmUp
-112.295166015625,-134.91513061523438,-65.17768859863281,-126.689697265625,-108.80829620361328,-123.73926544189453,-120.25238800048828,-98.52649688720703,0.552490234375,0.6875,0.486572265625,-0.0610351525247097,-0.8544921278953552,-0.2746581733226776,66.66667175292969,127.0,1.0,WarmUp
-112.295166015625,-134.8257293701172,-65.0882797241211,-126.689697265625,-108.71888732910156,-123.73926544189453,-119.98416900634766,-98.52649688720703,0.552001953125,0.6875,0.486572265625,-0.0610351525247097,-0.8544921278953552,-0.1525878757238388,66.66667175292969,128.0,1.0,WarmUp
-112.56339263916016,-134.91513061523438,-65.17768859863281,-126.51087951660156,-108.897705078125,-123.73926544189453,-120.341796875,-98.88412475585938,0.551513671875,0.68701171875,0.48486328125,0.0915527269244194,-0.8239745497703552,-0.1831054538488388,66.66667175292969,129.0,1.0,WarmUp
-112.56339263916016,-134.736328125,-65.17768859863281,-126.42147064208984,-108.98711395263672,-123.73926544189453,-120.341796875,-98.70530700683594,0.552734375,0.687744140625,0.484619140625,0.0,-0.8544921278953552,-0.1525878757238388,66.66667175292969,130.0,1.0,WarmUp
-112.38457489013672,-134.91513061523438,-65.17768859863281,-126.33206939697266,-108.80829620361328,-123.73926544189453,-120.341796875,-98.70530700683594,0.553466796875,0.689208984375,0.4833984375,0.0,-0.8850097060203552,-0.1525878757238388,66.66667175292969,131.0,1.0,WarmUp
-112.295166015625,-134.8257293701172,-65.17768859863281,-126.42147064208984,-108.71888732910156,-123.73926544189453,-119.98416900634766,-98.43708801269531,0.552001953125,0.688720703125,0.482666015625,0.03051757626235485,-0.7934569716453552,-0.1220703050494194,66.66667175292969,132.0,1.0,WarmUp
-112.20576477050781,-134.8257293701172,-64.9988784790039,-126.689697265625,-108.80829620361328,-123.5604476928711,-119.89476013183594,-98.43708801269531,0.55419921875,0.689697265625,0.4833984375,-0.0610351525247097,-0.7934569716453552,-0.0915527269244194,66.66667175292969,133.0,1.0,WarmUp
-112.295166015625,-134.736328125,-64.9988784790039,-126.60028839111328,-108.80829620361328,-123.5604476928711,-120.07357788085938,-98.61589813232422,0.552490234375,0.688232421875,0.484130859375,-0.03051757626235485,-0.7019042372703552,-0.1831054538488388,66.66667175292969,134.0,1.0,WarmUp
-112.38457489013672,-134.55751037597656,-65.35650634765625,-126.42147064208984,-108.71888732910156,-123.64985656738281,-120.07357788085938,-98.52649688720703,0.55029296875,0.690185546875,0.484375,-0.03051757626235485,-0.7934569716453552,-0.1831054538488388,66.66667175292969,135.0,1.0,WarmUp
-112.295166015625,-134.64691162109375,-65.44590759277344,-126.42147064208984,-108.98711395263672,-123.5604476928711,-119.98416900634766,-98.43708801269531,0.550537109375,0.68994140625,0.484130859375,-0.1220703050494194,-0.8544921278953552,-0.0610351525247097,66.66667175292969,136.0,1.0,WarmUp
-112.295166015625,-134.8257293701172,-65.17768859863281,-126.42147064208984,-108.71888732910156,-123.38163757324219,-119.98416900634766,-98.52649688720703,0.55078125,0.689453125,0.484619140625,-0.1525878757238388,-0.9155272841453552,-0.03051757626235485,66.66667175292969,137.0,1.0,WarmUp
-112.20576477050781,-134.91513061523438,-65.17768859863281,-126.42147064208984,-108.54007720947266,-123.20281982421875,-120.1629867553711,-98.52649688720703,0.55078125,0.68896484375,0.482421875,-0.1525878757238388,-0.8544921278953552,0.03051757626235485,66.66667175292969,138.0,1.0,WarmUp
-112.20576477050781,-134.64691162109375,-65.35650634765625,-126.33206939697266,-108.62948608398438,-123.29222869873047,-120.1629867553711,-98.43708801269531,0.553466796875,0.689208984375,0.484375,-0.2441406100988388,-0.7629393935203552,-0.1525878757238388,66.66667175292969,139.0,1.0,WarmUp
-112.1163558959961,-134.64691162109375,-65.35650634765625,-126.15325164794922,-108.62948608398438,-123.47103881835938,-120.07357788085938,-98.25827026367188,0.55419921875,0.68896484375,0.484375,-0.2136230319738388,-0.7629393935203552,-0.2136230319738388,66.66667175292969,140.0,1.0,WarmUp
-112.02694702148438,-134.736328125,-64.9988784790039,-126.24266052246094,-108.54007720947266,-123.47103881835938,-119.89476013183594,-98.25827026367188,0.553955078125,0.6904296875,0.489013671875,-0.1220703050494194,-0.8544921278953552,-0.2136230319738388,66.66667175292969,141.0,1.0,WarmUp
-112.295166015625,-134.55751037597656,-65.17768859863281,-126.42147064208984,-108.45066833496094,-123.29222869873047,-119.89476013183594,-98.43708801269531,0.552490234375,0.688232421875,0.489501953125,-0.03051757626235485,-0.8239745497703552,-0.2136230319738388,66.66667175292969,142.0,1.0,WarmUp
-112.20576477050781,-134.64691162109375,-65.0882797241211,-126.33206939697266,-108.45066833496094,-123.47103881835938,-119.80535888671875,-98.43708801269531,0.553466796875,0.690673828125,0.48681640625,0.0,-0.7629393935203552,-0.1831054538488388,66.66667175292969,143.0,1.0,WarmUp
-111.93753814697266,-134.736328125,-65.0882797241211,-126.24266052246094,-108.45066833496094,-123.29222869873047,-119.98416900634766,-98.52649688720703,0.5517578125,0.690185546875,0.48486328125,-0.03051757626235485,-0.7629393935203552,-0.2136230319738388,66.66667175292969,144.0,1.0,WarmUp
-111.93753814697266,-134.64691162109375,-65.17768859863281,-126.24266052246094,-108.54007720947266,-123.29222869873047,-119.71595001220703,-98.3476791381836,0.5517578125,0.690673828125,0.485595703125,-0.0610351525247097,-0.7324218153953552,-0.0915527269244194,66.66667175292969,145.0,1.0,WarmUp
-111.93753814697266,-134.55751037597656,-65.17768859863281,-126.42147064208984,-108.45066833496094,-123.11341094970703,-119.80535888671875,-98.43708801269531,0.552734375,0.691162109375,0.48583984375,0.0,-0.7324218153953552,-0.1525878757238388,66.66667175292969,146.0,1.0,WarmUp
-112.02694702148438,-134.37869262695312,-65.17768859863281,-126.42147064208984,-108.62948608398438,-123.47103881835938,-119.89476013183594,-98.43708801269531,0.552978515625,0.69189453125,0.48486328125,-0.0915527269244194,-0.8239745497703552,-0.1831054538488388,66.66667175292969,147.0,1.0,WarmUp
-111.93753814697266,-134.37869262695312,-64.9988784790039,-126.15325164794922,-108.36125946044922,-123.29222869873047,-119.62654113769531,-98.52649688720703,0.55322265625,0.6904296875,0.4853515625,-0.0915527269244194,-0.8239745497703552,-0.1220703050494194,66.66667175292969,148.0,1.0,WarmUp
-111.93753814697266,-134.55751037597656,-65.26709747314453,-126.24266052246094,-108.36125946044922,-123.29222869873047,-119.62654113769531,-98.52649688720703,0.552978515625,0.68994140625,0.48388671875,-0.03051757626235485,-0.8239745497703552,-0.1220703050494194,66.66667175292969,149.0,1.0,WarmUp
-111.93753814697266,-134.4680938720703,-65.26709747314453,-126.33206939697266,-108.36125946044922,-123.02400970458984,-119.5371322631836,-98.52649688720703,0.5546875,0.68896484375,0.484619140625,-0.03051757626235485,-0.8850097060203552,-0.2136230319738388,66.66667175292969,150.0,1.0,WarmUp
-112.02694702148438,-134.28929138183594,-65.17768859863281,-126.24266052246094,-108.36125946044922,-122.8451919555664,-119.71595001220703,-98.43708801269531,0.555419921875,0.689697265625,0.4853515625,0.0,-0.8239745497703552,-0.1220703050494194,66.66667175292969,151.0,1.0,WarmUp
-111.93753814697266,-134.28929138183594,-65.0882797241211,-126.15325164794922,-108.45066833496094,-123.02400970458984,-119.71595001220703,-98.3476791381836,0.5546875,0.6875,0.48486328125,0.0610351525247097,-0.8239745497703552,-0.1831054538488388,66.66667175292969,152.0,1.0,WarmUp
-111.93753814697266,-134.28929138183594,-64.9988784790039,-126.15325164794922,-108.27185821533203,-123.02400970458984,-119.62654113769531,-98.43708801269531,0.550537109375,0.68798828125,0.482177734375,-0.03051757626235485,-0.8239745497703552,-0.0610351525247097,66.66667175292969,153.0,1.0,WarmUp
-112.02694702148438,-134.4680938720703,-65.0882797241211,-126.33206939697266,-108.36125946044922,-123.02400970458984,-119.71595001220703,-98.3476791381836,0.551025390625,0.688720703125,0.480224609375,-0.03051757626235485,-0.8239745497703552,-0.1525878757238388,66.66667175292969,154.0,1.0,WarmUp
-112.20576477050781,-134.37869262695312,-64.9988784790039,-126.42147064208984,-108.0930404663086,-123.02400970458984,-119.62654113769531,-98.25827026367188,0.551025390625,0.688232421875,0.480712890625,-0.0610351525247097,-0.7934569716453552,-0.1525878757238388,66.66667175292969,155.0,1.0,WarmUp
-112.1163558959961,-134.4680938720703,-64.90946960449219,-126.24266052246094,-108.27185821533203,-123.11341094970703,-119.71595001220703,-98.43708801269531,0.55224609375,0.689208984375,0.481689453125,-0.0610351525247097,-0.7934569716453552,-0.0610351525247097,66.66667175292969,156.0,1.0,WarmUp
-111.75872802734375,-134.4680938720703,-64.73065185546875,-125.8850326538086,-108.27185821533203,-123.11341094970703,-119.89476013183594,-98.16886901855469,0.55126953125,0.68896484375,0.48681640625,0.03051757626235485,-0.8544921278953552,-0.1220703050494194,66.66667175292969,157.0,1.0,WarmUp
-111.84813690185547,-134.37869262695312,-64.3730239868164,-126.0638427734375,-108.18244934082031,-123.20281982421875,-119.80535888671875,-98.25827026367188,0.55224609375,0.689208984375,0.48388671875,0.0610351525247097,-0.9765624403953552,-0.0610351525247097,66.66667175292969,158.0,1.0,WarmUp
-111.93753814697266,-134.4680938720703,-64.28362274169922,-126.15325164794922,-108.18244934082031,-123.20281982421875,-119.5371322631836,-98.52649688720703,0.5517578125,0.688720703125,0.484130859375,-0.0610351525247097,-0.9155272841453552,-0.0915527269244194,66.66667175292969,159.0,1.0,WarmUp
-111.75872802734375,-134.28929138183594,-64.46243286132812,-126.24266052246094,-108.18244934082031,-123.38163757324219,-119.5371322631836,-98.43708801269531,0.550537109375,0.688720703125,0.483642578125,-0.0915527269244194,-0.8544921278953552,-0.0610351525247097,66.66667175292969,160.0,1.0,WarmUp
-111.84813690185547,-134.28929138183594,-64.3730239868164,-126.0638427734375,-108.0930404663086,-123.47103881835938,-119.71595001220703,-98.3476791381836,0.5517578125,0.687744140625,0.4814453125,-0.1831054538488388,-0.9155272841453552,-0.1831054538488388,66.66667175292969,161.0,1.0,WarmUp
-111.84813690185547,-134.37869262695312,-64.10480499267578,-125.97444152832031,-108.0930404663086,-123.29222869873047,-119.80535888671875,-98.3476791381836,0.552001953125,0.6884765625,0.4833984375,-0.0610351525247097,-0.8239745497703552,-0.1220703050494194,66.66667175292969,162.0,1.0,WarmUp
-111.75872802734375,-134.4680938720703,-63.657772064208984,-125.79562377929688,-107.91423034667969,-123.02400970458984,-119.89476013183594,-98.43708801269531,0.55126953125,0.6884765625,0.4814453125,0.03051757626235485,-0.7629393935203552,-0.0610351525247097,66.66667175292969,163.0,1.0,WarmUp
-111.93753814697266,-134.55751037597656,-63.389549255371094,-125.97444152832031,-108.27185821533203,-123.02400970458984,-119.71595001220703,-98.16886901855469,0.55126953125,0.689453125,0.48388671875,0.03051757626235485,-0.8544921278953552,-0.0915527269244194,66.66667175292969,164.0,1.0,WarmUp
-111.84813690185547,-134.4680938720703,-63.21073532104492,-126.15325164794922,-108.18244934082031,-123.02400970458984,-119.5371322631836,-98.07946014404297,0.55029296875,0.68994140625,0.483154296875,-0.1525878757238388,-0.9155272841453552,-0.1525878757238388,66.66667175292969,165.0,1.0,WarmUp
-111.75872802734375,-134.64691162109375,-62.9425163269043,-126.15325164794922,-107.82482147216797,-123.02400970458984,-119.5371322631836,-97.81124114990234,0.5498046875,0.6884765625,0.483154296875,-0.0915527269244194,-0.7934569716453552,-0.1831054538488388,66.66667175292969,166.0,1.0,WarmUp
-111.75872802734375,-134.8257293701172,-62.763702392578125,-126.33206939697266,-107.82482147216797,-123.02400970458984,-119.5371322631836,-97.81124114990234,0.550048828125,0.689208984375,0.48388671875,-0.0915527269244194,-0.8239745497703552,-0.1525878757238388,66.66667175292969,167.0,1.0,WarmUp
-111.84813690185547,-134.736328125,-62.674293518066406,-125.70621490478516,-107.64600372314453,-123.02400970458984,-119.5371322631836,-97.81124114990234,0.550048828125,0.689697265625,0.487060546875,-0.0610351525247097,-0.8239745497703552,-0.1831054538488388,66.66667175292969,168.0,1.0,WarmUp
-111.84813690185547,-134.64691162109375,-62.31666564941406,-125.97444152832031,-107.64600372314453,-123.02400970458984,-119.62654113769531,-97.6324234008789,0.550048828125,0.689697265625,0.484375,-0.03051757626235485,-0.8239745497703552,-0.1831054538488388,66.66667175292969,169.0,1.0,WarmUp
-111.93753814697266,-134.55751037597656,-62.13785171508789,-125.97444152832031,-107.46719360351562,-123.02400970458984,-119.62654113769531,-97.27479553222656,0.548583984375,0.689208984375,0.486572265625,0.0,-0.8239745497703552,-0.1220703050494194,66.66667175292969,170.0,1.0,WarmUp
-111.75872802734375,-134.64691162109375,-61.95903778076172,-125.97444152832031,-107.55660247802734,-123.11341094970703,-119.4477310180664,-97.09598541259766,0.548828125,0.687255859375,0.485107421875,-0.1220703050494194,-0.8239745497703552,-0.1831054538488388,66.66667175292969,171.0,1.0,WarmUp
-111.49050903320312,-134.736328125,-61.869632720947266,-125.97444152832031,-107.3777847290039,-122.8451919555664,-119.4477310180664,-96.47013092041016,0.55078125,0.686767578125,0.483642578125,-0.03051757626235485,-0.8239745497703552,-0.1525878757238388,66.66667175292969,172.0,1.0,WarmUp
-111.84813690185547,-134.736328125,-61.4225959777832,-125.79562377929688,-107.46719360351562,-122.93460083007812,-119.35832214355469,-96.6489486694336,0.551513671875,0.689208984375,0.482177734375,0.03051757626235485,-0.8850097060203552,-0.2746581733226776,66.66667175292969,173.0,1.0,WarmUp
-111.75872802734375,-135.00454711914062,-61.15437698364258,-125.79562377929688,-107.46719360351562,-123.02400970458984,-119.4477310180664,-96.47013092041016,0.55126953125,0.688720703125,0.4853515625,0.0,-0.7629393935203552,-0.1220703050494194,66.66667175292969,174.0,1.0,WarmUp
-111.66931915283203,-135.00454711914062,-60.975563049316406,-126.0638427734375,-107.28837585449219,-123.11341094970703,-119.5371322631836,-96.29132080078125,0.554443359375,0.687744140625,0.481201171875,-0.0915527269244194,-0.7324218153953552,-0.03051757626235485,66.66667175292969,175.0,1.0,WarmUp
-111.49050903320312,-135.00454711914062,-61.15437698364258,-126.15325164794922,-107.02015686035156,-123.11341094970703,-119.4477310180664,-96.20191192626953,0.551513671875,0.690185546875,0.482177734375,-0.03051757626235485,-0.7629393935203552,-0.0610351525247097,66.66667175292969,176.0,1.0,WarmUp
-111.49050903320312,-135.0939483642578,-60.707340240478516,-126.0638427734375,-106.84134674072266,-123.29222869873047,-119.17950439453125,-95.9336929321289,0.551025390625,0.689208984375,0.484375,-0.1525878757238388,-0.7934569716453552,-0.1220703050494194,66.66667175292969,177.0,1.0,WarmUp
-111.84813690185547,-134.8257293701172,-60.26030731201172,-125.79562377929688,-106.93074798583984,-123.02400970458984,-119.09010314941406,-95.66547393798828,0.55126953125,0.688232421875,0.485107421875,-0.0915527269244194,-0.7324218153953552,-0.1525878757238388,66.66667175292969,178.0,1.0,WarmUp
-111.84813690185547,-135.00454711914062,-60.08149337768555,-125.79562377929688,-106.5731201171875,-123.02400970458984,-119.26891326904297,-95.21843719482422,0.552001953125,0.68603515625,0.48486328125,-0.03051757626235485,-0.7629393935203552,-0.0610351525247097,66.66667175292969,179.0,1.0,WarmUp
-111.93753814697266,-135.27276611328125,-59.7238655090332,-125.97444152832031,-106.3943099975586,-123.02400970458984,-119.4477310180664,-95.1290283203125,0.55126953125,0.686767578125,0.483154296875,0.03051757626235485,-0.8239745497703552,-0.0610351525247097,66.66667175292969,180.0,1.0,WarmUp
-111.93753814697266,-135.36216735839844,-59.813270568847656,-125.97444152832031,-106.30490112304688,-122.75578308105469,-119.17950439453125,-94.68199157714844,0.5537109375,0.688720703125,0.484375,0.03051757626235485,-0.8544921278953552,-0.1220703050494194,66.66667175292969,181.0,1.0,WarmUp
-111.57991027832031,-135.4515838623047,-59.36623764038086,-125.79562377929688,-106.21549224853516,-122.8451919555664,-119.35832214355469,-94.3243637084961,0.55419921875,0.688720703125,0.48486328125,0.0610351525247097,-0.8239745497703552,-0.1220703050494194,66.66667175292969,182.0,1.0,WarmUp
-111.66931915283203,-135.54098510742188,-58.829795837402344,-125.8850326538086,-106.12609100341797,-123.02400970458984,-119.09010314941406,-94.05614471435547,0.5546875,0.6884765625,0.482421875,0.03051757626235485,-0.8850097060203552,-0.0915527269244194,66.66667175292969,183.0,1.0,WarmUp
-111.75872802734375,-135.8986053466797,-58.9192008972168,-125.97444152832031,-105.76846313476562,-123.02400970458984,-119.00069427490234,-93.87733459472656,0.554443359375,0.687744140625,0.481201171875,-0.03051757626235485,-0.8239745497703552,-0.0610351525247097,66.66667175292969,184.0,1.0,WarmUp
-111.49050903320312,-135.7198028564453,-58.47216796875,-125.97444152832031,-105.58964538574219,-122.93460083007812,-118.91128540039062,-93.78792572021484,0.553466796875,0.688232421875,0.482421875,0.03051757626235485,-0.7019042372703552,-0.1525878757238388,66.66667175292969,185.0,1.0,WarmUp
-111.66931915283203,-135.54098510742188,-58.02513122558594,-125.97444152832031,-105.41083526611328,-122.93460083007812,-119.00069427490234,-93.51970672607422,0.552734375,0.687744140625,0.4814453125,-0.0610351525247097,-0.7324218153953552,-0.1525878757238388,66.66667175292969,186.0,1.0,WarmUp
-111.66931915283203,-135.8092041015625,-57.57809829711914,-125.97444152832031,-105.23201751708984,-123.02400970458984,-118.64306640625,-93.07266998291016,0.551513671875,0.688232421875,0.481689453125,-0.1220703050494194,-0.8544921278953552,-0.1220703050494194,66.66667175292969,187.0,1.0,WarmUp
-111.66931915283203,-136.07742309570312,-57.48868942260742,-125.79562377929688,-104.96379852294922,-123.11341094970703,-118.64306640625,-92.80445098876953,0.553955078125,0.688720703125,0.48193359375,-0.1220703050494194,-0.8850097060203552,-0.0610351525247097,66.66667175292969,188.0,1.0,WarmUp
-111.84813690185547,-136.25624084472656,-57.39928436279297,-125.70621490478516,-105.05320739746094,-122.8451919555664,-118.64306640625,-92.89385223388672,0.55419921875,0.689453125,0.484130859375,-0.1831054538488388,-0.8239745497703552,0.03051757626235485,66.66667175292969,189.0,1.0,WarmUp
-111.84813690185547,-136.16683959960938,-56.05817794799805,-125.61680603027344,-104.78498077392578,-122.8451919555664,-116.58670806884766,-83.95315551757812,0.553466796875,0.691162109375,0.4853515625,-0.0610351525247097,-0.7629393935203552,-0.1220703050494194,66.66667175292969,190.0,1.0,WarmUp
-107.46719360351562,-134.91513061523438,-21.368268966674805,-98.43708801269531,-94.41377258300781,-97.72183227539062,-54.806480407714844,22.083524703979492,0.552490234375,0.691162109375,0.48388671875,0.0,-0.8239745497703552,-0.1220703050494194,66.66667175292969,191.0,1.0,WarmUp
-43.272979736328125,-90.2116470336914,121.8617172241211,41.037803649902344,1.2516977787017822,39.249664306640625,148.8626251220703,249.98191833496094,0.55224609375,0.689697265625,0.483154296875,-0.0915527269244194,-0.8850097060203552,-0.2441406100988388,66.66667175292969,192.0,1.0,WarmUp
99.77819061279297,51.14079284667969,344.1274719238281,260.9789733886719,206.88775634765625,255.7933807373047,386.5063781738281,484.9434814453125,0.552734375,0.6875,0.4833984375,-0.0610351525247097,-0.9155272841453552,-0.1525878757238388,66.66667175292969,193.0,1.0,WarmUp
290.4832763671875,251.59124755859375,559.9559326171875,476.80743408203125,419.1399230957031,467.50909423828125,600.2785034179688,699.0731811523438,0.550048828125,0.689208984375,0.48291015625,-0.0915527269244194,-0.8239745497703552,-0.2136230319738388,66.66667175292969,194.0,1.0,WarmUp
527.9482421875,497.46044921875,807.166259765625,722.1401977539062,659.4658813476562,709.5338134765625,844.8065795898438,944.495361328125,0.549072265625,0.6884765625,0.48486328125,-0.1220703050494194,-0.8544921278953552,-0.0915527269244194,66.66667175292969,195.0,1.0,WarmUp
805.10986328125,783.1157836914062,1095.77197265625,1008.7789916992188,939.3097534179688,991.4340209960938,1131.713623046875,1232.654052734375,0.55078125,0.689697265625,0.487548828125,-0.1525878757238388,-0.8850097060203552,-0.1220703050494194,66.66667175292969,196.0,1.0,WarmUp
1085.0430908203125,1069.486328125,1386.43408203125,1298.27880859375,1222.461669921875,1277.4468994140625,1425.057861328125,1526.2666015625,0.55078125,0.68994140625,0.484130859375,-0.1220703050494194,-0.8544921278953552,-0.1220703050494194,66.66667175292969,197.0,1.0,WarmUp
1330.6441650390625,1315.26611328125,1638.11474609375,1551.1217041015625,1471.0130615234375,1528.412353515625,1683.6229248046875,1783.7586669921875,0.552490234375,0.688720703125,0.485107421875,0.03051757626235485,-0.7629393935203552,-0.1831054538488388,66.66667175292969,198.0,1.0,WarmUp
1554.4298095703125,1533.5980224609375,1864.1356201171875,1779.288330078125,1696.944580078125,1755.7742919921875,1916.97509765625,2016.3062744140625,0.55224609375,0.6884765625,0.484375,0.03051757626235485,-0.7934569716453552,-0.1831054538488388,66.66667175292969,199.0,1.0,WarmUp
1806.5574951171875,1775.44384765625,2116.352783203125,2034.1876220703125,1951.1285400390625,2010.8524169921875,2177.507080078125,2274.78173828125,0.551025390625,0.688720703125,0.484130859375,-0.0915527269244194,-0.8239745497703552,-0.0610351525247097,66.66667175292969,200.0,1.0,WarmUp
2105.1767578125,2060.205078125,2412.91552734375,2333.611572265625,2251.71484375,2311.0810546875,2481.580078125,2577.424560546875,0.547119140625,0.689453125,0.486083984375,-0.0610351525247097,-0.7629393935203552,-0.1220703050494194,66.66667175292969,201.0,1.0,WarmUp
2403.080810546875,2345.14501953125,2707.958740234375,2630.174560546875,2551.317626953125,2608.985107421875,2780.4677734375,2876.22265625,0.54833984375,0.689208984375,0.486328125,-0.1525878757238388,-0.7629393935203552,-0.1220703050494194,66.66667175292969,202.0,1.0,WarmUp
2649.665283203125,2584.1298828125,2953.023193359375,2875.686279296875,2799.33251953125,2855.569580078125,3026.783935546875,3122.896484375,0.5478515625,0.689453125,0.48486328125,-0.1220703050494194,-0.7629393935203552,-0.1525878757238388,66.66667175292969,203.0,1.0,WarmUp
2858.34130859375,2788.24609375,3160.804931640625,3083.1103515625,3008.813232421875,3064.066650390625,3234.56591796875,3331.30419921875,0.55078125,0.6884765625,0.483642578125,-0.1525878757238388,-0.7629393935203552,-0.1220703050494194,66.66667175292969,204.0,1.0,WarmUp
3090.262939453125,3017.396240234375,3392.637451171875,3314.31689453125,3241.986572265625,3296.256591796875,3465.772216796875,3563.225830078125,0.550537109375,0.6884765625,0.484619140625,-0.0915527269244194,-0.7324218153953552,-0.1220703050494194,66.66667175292969,205.0,1.0,WarmUp
3365.636474609375,3291.875732421875,3668.63671875,3589.511474609375,3519.058837890625,3572.434814453125,3741.056396484375,3839.493408203125,0.5517578125,0.6884765625,0.48486328125,-0.0915527269244194,-0.8239745497703552,-0.1220703050494194,66.66667175292969,206.0,1.0,WarmUp
3635.377197265625,3562.153076171875,3939.18212890625,3859.341796875,3790.319580078125,3842.980224609375,4011.15478515625,4110.12841796875,0.55078125,0.68798828125,0.482666015625,0.0,-0.8239745497703552,-0.0610351525247097,66.66667175292969,207.0,1.0,WarmUp
3854.871337890625,3782.630615234375,4160.017578125,4079.461669921875,4011.15478515625,4063.4580078125,4231.3642578125,4331.142578125,0.552001953125,0.68896484375,0.48388671875,0.1220703050494194,-0.8544921278953552,-0.1831054538488388,66.66667175292969,208.0,1.0,WarmUp
4042.178955078125,3970.921630859375,4348.84521484375,4267.21630859375,4199.3564453125,4251.48095703125,4419.6552734375,4519.791015625,0.550537109375,0.689697265625,0.482666015625,0.1220703050494194,-0.8850097060203552,-0.1525878757238388,66.66667175292969,209.0,1.0,WarmUp
4248.08349609375,4178.25634765625,4556.53759765625,4474.0146484375,4406.95947265625,4458.63671875,4626.63232421875,4727.4833984375,0.551513671875,0.689453125,0.481689453125,0.0610351525247097,-0.8544921278953552,-0.1525878757238388,66.66667175292969,210.0,1.0,WarmUp
4497.97607421875,4430.11572265625,4808.21826171875,4725.337890625,4658.28271484375,4710.22802734375,4878.044921875,4979.4326171875,0.55029296875,0.688232421875,0.484619140625,-0.03051757626235485,-0.9460448622703552,-0.1220703050494194,66.66667175292969,211.0,1.0,WarmUp
4744.82861328125,4678.578125,5057.21630859375,4973.62109375,4906.74462890625,4959.0478515625,5127.1328125,5228.60986328125,0.552978515625,0.687255859375,0.486083984375,-0.1220703050494194,-0.8239745497703552,-0.0915527269244194,66.66667175292969,212.0,1.0,WarmUp
4939.3779296875,4874.37939453125,5253.46484375,5169.869140625,5102.63525390625,5155.1171875,5323.29150390625,5424.947265625,0.552490234375,0.688720703125,0.484619140625,-0.0610351525247097,-0.7324218153953552,-0.2136230319738388,66.66667175292969,213.0,1.0,WarmUp
5101.47314453125,5037.27880859375,5416.8115234375,5332.76904296875,5265.53466796875,5318.37451171875,5486.81689453125,5588.20458984375,0.55322265625,0.687255859375,0.48388671875,0.0,-0.7934569716453552,-0.1831054538488388,66.66667175292969,214.0,1.0,WarmUp
5286.0986328125,5222.79833984375,5602.509765625,5518.28857421875,5451.50146484375,5503.89404296875,5672.78369140625,5773.9921875,0.5537109375,0.68994140625,0.484619140625,0.03051757626235485,-0.7934569716453552,-0.1220703050494194,66.66667175292969,215.0,1.0,WarmUp
5516.7685546875,5454.18359375,5834.52099609375,5750.388671875,5683.4228515625,5736.17333984375,5904.9736328125,6006.62939453125,0.553466796875,0.68896484375,0.484375,-0.03051757626235485,-0.8239745497703552,-0.1220703050494194,66.66667175292969,216.0,1.0,WarmUp
5746.72314453125,5685.12158203125,6066.35302734375,5982.04248046875,5914.9873046875,5967.55859375,6137.16357421875,6238.72998046875,0.551025390625,0.688720703125,0.483154296875,-0.03051757626235485,-0.8239745497703552,-0.1831054538488388,66.66667175292969,217.0,1.0,WarmUp
5927.05712890625,5865.90283203125,6247.67041015625,6163.53857421875,6096.21484375,6148.8759765625,6319.01708984375,6420.40478515625,0.5498046875,0.689453125,0.484619140625,-0.03051757626235485,-0.8239745497703552,-0.1831054538488388,66.66667175292969,218.0,1.0,WarmUp
6074.75732421875,6013.60302734375,6396.17529296875,6311.68603515625,6244.45166015625,6297.380859375,6467.61181640625,6568.90966796875,0.552001953125,0.6884765625,0.482421875,-0.0610351525247097,-0.7324218153953552,-0.1525878757238388,66.66667175292969,219.0,1.0,WarmUp
6241.68017578125,6181.2412109375,6564.17138671875,6480.12841796875,6412.62646484375,6465.73388671875,6635.87548828125,6737.53125,0.552978515625,0.688232421875,0.480712890625,0.0610351525247097,-0.8544921278953552,-0.2136230319738388,66.66667175292969,220.0,1.0,WarmUp
6449.37255859375,6388.93359375,6772.9365234375,6688.44677734375,6621.30224609375,6674.32080078125,6844.9091796875,6946.296875,0.552734375,0.689697265625,0.48193359375,-0.03051757626235485,-0.6713866591453552,-0.1831054538488388,66.66667175292969,221.0,1.0,WarmUp
6659.65771484375,6599.30810546875,6984.74169921875,6899.7158203125,6832.75,6885.94677734375,7056.8037109375,7158.01220703125,0.5517578125,0.689453125,0.482666015625,-0.0610351525247097,-0.7324218153953552,-0.1525878757238388,66.66667175292969,222.0,1.0,WarmUp
6828.18994140625,6768.1083984375,7154.25732421875,7069.41015625,7001.9970703125,7055.46240234375,7226.6767578125,7328.15380859375,0.551513671875,0.688720703125,0.481201171875,-0.03051757626235485,-0.7629393935203552,-0.1220703050494194,66.66667175292969,223.0,1.0,WarmUp
6959.6181640625,6899.17919921875,7286.1328125,7201.46435546875,7134.05126953125,7187.06982421875,7358.55224609375,7460.47607421875,0.551513671875,0.68896484375,0.48291015625,-0.0610351525247097,-0.8850097060203552,-0.2441406100988388,66.66667175292969,224.0,1.0,WarmUp
7113.5771484375,7053.40625,7440.9853515625,7356.13818359375,7288.63623046875,7342.1015625,7513.85205078125,7615.7763671875,0.553466796875,0.6884765625,0.48291015625,-0.03051757626235485,-0.8850097060203552,-0.1220703050494194,66.66667175292969,225.0,1.0,WarmUp
7319.12353515625,7259.4892578125,7647.6943359375,7562.5791015625,7495.3447265625,7548.810546875,7721.00830078125,7822.93212890625,0.5517578125,0.690185546875,0.48291015625,-0.0610351525247097,-0.7629393935203552,-0.03051757626235485,66.66667175292969,226.0,1.0,WarmUp
7528.87255859375,7468.9697265625,7858.248046875,7773.31103515625,7706.43505859375,7759.54248046875,7932.09814453125,8033.9326171875,0.551513671875,0.690185546875,0.4853515625,-0.0610351525247097,-0.7324218153953552,-0.0915527269244194,66.66667175292969,227.0,1.0,WarmUp
7689.17919921875,7628.47216796875,8019.00146484375,7933.6181640625,7867.1884765625,7920.29638671875,8093.20947265625,8194.775390625,0.551025390625,0.687744140625,0.4814453125,-0.03051757626235485,-0.7629393935203552,-0.0915527269244194,66.66667175292969,228.0,1.0,WarmUp
7818.8193359375,7758.38037109375,8149.35693359375,8063.8837890625,7997.365234375,8051.00927734375,8223.4755859375,8325.3994140625,0.55029296875,0.686767578125,0.482421875,-0.0610351525247097,-0.7629393935203552,-0.1831054538488388,66.66667175292969,229.0,1.0,WarmUp
7973.67236328125,7913.1435546875,8305.103515625,8219.720703125,8152.84375,8206.5771484375,8379.1328125,8481.3251953125,0.55078125,0.68701171875,0.484375,-0.03051757626235485,-0.8850097060203552,-0.1525878757238388,66.66667175292969,230.0,1.0,WarmUp
8181.4541015625,8120.478515625,8513.421875,8428.2177734375,8361.609375,8415.3427734375,8588.166015625,8689.822265625,0.552734375,0.688720703125,0.483642578125,-0.0915527269244194,-0.7934569716453552,-0.0610351525247097,66.66667175292969,231.0,1.0,WarmUp
8394.421875,8333.087890625,8727.015625,8641.900390625,8575.2919921875,8629.025390625,8801.9384765625,8903.5947265625,0.552734375,0.6875,0.48291015625,-0.0915527269244194,-0.8544921278953552,-0.1831054538488388,66.66667175292969,232.0,1.0,WarmUp
8558.5732421875,8497.41796875,8891.703125,8806.6767578125,8740.4267578125,8793.712890625,8966.89453125,9068.7294921875,0.552978515625,0.6875,0.483154296875,-0.0610351525247097,-0.8239745497703552,-0.1831054538488388,66.66667175292969,233.0,1.0,WarmUp
8695.8125,8635.2841796875,9030.015625,8944.6318359375,8878.828125,8932.025390625,9105.4755859375,9207.3994140625,0.5517578125,0.688720703125,0.482421875,-0.0610351525247097,-0.7934569716453552,-0.1831054538488388,66.66667175292969,234.0,1.0,WarmUp
8855.8505859375,8794.96484375,9190.5908203125,9104.9384765625,9038.9560546875,9092.779296875,9266.0498046875,9368.2421875,0.552734375,0.68994140625,0.482421875,-0.03051757626235485,-0.7324218153953552,-0.2136230319738388,66.66667175292969,235.0,1.0,WarmUp
9066.6728515625,9005.25,9401.94921875,9316.296875,9250.5830078125,9304.31640625,9477.9443359375,9579.779296875,0.55029296875,0.6904296875,0.48388671875,-0.0610351525247097,-0.7324218153953552,-0.0915527269244194,66.66667175292969,236.0,1.0,WarmUp
9279.2822265625,9217.6806640625,9615.1845703125,9529.5322265625,9463.9970703125,9517.5517578125,9691.359375,9793.5517578125,0.549560546875,0.689697265625,0.480712890625,-0.03051757626235485,-0.8850097060203552,-0.1831054538488388,66.66667175292969,237.0,1.0,WarmUp
9444.595703125,9382.994140625,9781.4814453125,9695.5615234375,9630.0263671875,9683.8486328125,9857.3876953125,9959.9375,0.550537109375,0.689453125,0.482177734375,-0.0915527269244194,-0.8850097060203552,-0.1525878757238388,66.66667175292969,238.0,1.0,WarmUp
9579.6005859375,9518.3564453125,9917.0224609375,9831.3701171875,9765.65625,9819.8369140625,9993.0185546875,10095.7470703125,0.552490234375,0.688720703125,0.48486328125,-0.1525878757238388,-0.9765624403953552,-0.03051757626235485,66.66667175292969,239.0,1.0,WarmUp
9737.8505859375,9676.3388671875,10075.630859375,9989.978515625,9924.443359375,9978.35546875,10151.537109375,10254.623046875,0.552490234375,0.6884765625,0.48486328125,-0.1220703050494194,-0.8850097060203552,-0.0610351525247097,66.66667175292969,240.0,1.0,WarmUp
9943.12890625,9881.3486328125,10281.53515625,10195.8828125,10130.0791015625,10184.1708984375,10358.24609375,10460.974609375,0.554443359375,0.68798828125,0.486328125,-0.03051757626235485,-0.8850097060203552,-0.0915527269244194,66.66667175292969,241.0,1.0,WarmUp
10147.3349609375,10085.197265625,10486.455078125,10400.625,10335.08984375,10389.001953125,10563.4345703125,10666.1630859375,0.55322265625,0.6884765625,0.48388671875,-0.03051757626235485,-0.7934569716453552,-0.1220703050494194,66.66667175292969,242.0,1.0,WarmUp
10302.0986328125,10240.1396484375,10642.0234375,10555.9248046875,10490.8369140625,10544.48046875,10718.82421875,10822.0888671875,0.552734375,0.6904296875,0.483642578125,-0.03051757626235485,-0.8544921278953552,-0.0915527269244194,66.66667175292969,243.0,1.0,WarmUp
10426.552734375,10364.59375,10766.74609375,10680.2900390625,10615.4697265625,10669.29296875,10843.546875,10946.6328125,0.5537109375,0.689697265625,0.483642578125,0.03051757626235485,-0.7629393935203552,-0.0915527269244194,66.66667175292969,244.0,1.0,WarmUp
10574.521484375,10512.0263671875,10914.71484375,10828.4375,10763.52734375,10817.529296875,10991.6044921875,11094.8701171875,0.55126953125,0.688720703125,0.483154296875,0.0,-0.8544921278953552,-0.0915527269244194,66.66667175292969,245.0,1.0,WarmUp
10763.8857421875,10701.30078125,11104.5263671875,11018.1591796875,10953.517578125,11007.3408203125,11181.86328125,11285.2177734375,0.551025390625,0.690185546875,0.48388671875,0.0,-0.8544921278953552,-0.0610351525247097,66.66667175292969,246.0,1.0,WarmUp
10954.232421875,10891.8271484375,11295.767578125,11209.2216796875,11144.669921875,11198.58203125,11373.015625,11476.458984375,0.55029296875,0.688720703125,0.484375,-0.1525878757238388,-0.8544921278953552,-0.03051757626235485,66.66667175292969,247.0,1.0,WarmUp
11096.30078125,11033.537109375,11437.8349609375,11351.2890625,11287.0947265625,11341.0966796875,11515.26171875,11618.9736328125,0.55224609375,0.68701171875,0.48388671875,-0.1220703050494194,-0.7934569716453552,-0.1525878757238388,66.66667175292969,248.0,1.0,WarmUp
11209.2216796875,11146.279296875,11551.203125,11464.388671875,11400.1953125,11454.017578125,11628.5400390625,11732.0732421875,0.552978515625,0.689208984375,0.48583984375,-0.03051757626235485,-0.7629393935203552,-0.1220703050494194,66.66667175292969,249.0,1.0,WarmUp
11343.33203125,11280.568359375,11686.029296875,11599.3935546875,11534.841796875,11589.201171875,11764.0810546875,11867.3466796875,0.55224609375,0.689453125,0.4853515625,0.1220703050494194,-0.7934569716453552,-0.1831054538488388,66.66667175292969,250.0,1.0,WarmUp
11516.6923828125,11453.75,11859.7470703125,11773.111328125,11708.828125,11763.09765625,11937.888671875,12041.6005859375,0.5537109375,0.6904296875,0.482177734375,0.0915527269244194,-0.7934569716453552,-0.1220703050494194,66.66667175292969,251.0,1.0,WarmUp
11682.453125,11619.599609375,12025.775390625,11939.3193359375,11875.3037109375,11929.2158203125,12104.54296875,12207.80859375,0.553955078125,0.68896484375,0.482421875,0.03051757626235485,-0.7934569716453552,-0.03051757626235485,66.66667175292969,252.0,1.0,WarmUp
11802.5263671875,11739.494140625,12146.6533203125,12059.9287109375,11996.0029296875,12049.9150390625,12225.4208984375,12328.41796875,0.553466796875,0.687255859375,0.486328125,0.0610351525247097,-0.9155272841453552,-0.0610351525247097,66.66667175292969,253.0,1.0,WarmUp
11912.4970703125,11848.9287109375,12256.4453125,12169.9892578125,12106.0634765625,12160.064453125,12335.1240234375,12438.5673828125,0.55224609375,0.685302734375,0.482666015625,0.0,-0.8544921278953552,-0.0915527269244194,66.66667175292969,254.0,1.0,WarmUp
12048.216796875,11984.55859375,12392.34375,12306.2451171875,12242.05078125,12296.2314453125,12471.4697265625,12574.9130859375,0.55029296875,0.6845703125,0.483154296875,-0.0610351525247097,-0.8239745497703552,-0.0915527269244194,66.66667175292969,255.0,1.0,WarmUp
12204.5,12140.57421875,12548.9853515625,12462.70703125,12398.6025390625,12453.0517578125,12627.931640625,12731.7333984375,0.5498046875,0.682861328125,0.485595703125,-0.1220703050494194,-0.7934569716453552,-0.1220703050494194,66.66667175292969,256.0,1.0,WarmUp
12350.2333984375,12286.576171875,12695.3447265625,12608.8876953125,12545.0517578125,12599.4111328125,12774.4697265625,12878.181640625,0.553466796875,0.6845703125,0.484619140625,-0.03051757626235485,-0.7629393935203552,-0.1220703050494194,66.66667175292969,257.0,1.0,WarmUp
12444.021484375,12380.5419921875,12789.2216796875,12703.033203125,12639.107421875,12693.3779296875,12868.4365234375,12972.23828125,0.55126953125,0.689208984375,0.486083984375,0.0610351525247097,-0.7019042372703552,-0.1220703050494194,66.66667175292969,258.0,1.0,WarmUp
12532.265625,12468.697265625,12878.0029296875,12791.099609375,12727.53125,12781.890625,12956.94921875,13060.6611328125,0.548828125,0.691650390625,0.48095703125,0.1831054538488388,-0.6103515028953552,-0.03051757626235485,66.66667175292969,259.0,1.0,WarmUp
12636.8720703125,12573.125,12982.7880859375,12895.9736328125,12832.4052734375,12886.943359375,13061.8232421875,13165.4462890625,0.54833984375,0.69287109375,0.478271484375,0.1220703050494194,-0.7019042372703552,0.0,66.66667175292969,260.0,1.0,WarmUp
12785.82421875,12722.5244140625,13132.09765625,13045.9091796875,12981.9833984375,13036.521484375,13211.580078125,13315.2919921875,0.550048828125,0.693115234375,0.481689453125,-0.0915527269244194,-0.7934569716453552,-0.0915527269244194,66.66667175292969,261.0,1.0,WarmUp
12917.6103515625,12854.220703125,13264.5986328125,13178.052734375,13114.126953125,13169.0224609375,13343.8134765625,13447.3466796875,0.552001953125,0.69189453125,0.487548828125,-0.2136230319738388,-0.8544921278953552,-0.1831054538488388,66.66667175292969,262.0,1.0,WarmUp
13013.4541015625,12949.259765625,13360.353515625,13273.271484375,13209.4345703125,13264.330078125,13439.478515625,13543.1904296875,0.5556640625,0.691650390625,0.489013671875,-0.1220703050494194,-0.8850097060203552,-0.2441406100988388,66.66667175292969,263.0,1.0,WarmUp
13081.224609375,13017.0302734375,13427.9453125,13341.3095703125,13277.294921875,13332.1005859375,13507.517578125,13611.05078125,0.556640625,0.69140625,0.487548828125,-0.1525878757238388,-0.7324218153953552,-0.2746581733226776,66.66667175292969,264.0,1.0,WarmUp
13183.685546875,13119.8486328125,13530.9423828125,13444.306640625,13380.4697265625,13435.09765625,13610.24609375,13714.2265625,0.554931640625,0.69091796875,0.482666015625,-0.0915527269244194,-0.7629393935203552,-0.2746581733226776,66.66667175292969,265.0,1.0,WarmUp
13311.537109375,13248.05859375,13659.1513671875,13572.4267578125,13508.8583984375,13563.5751953125,13738.8134765625,13843.1513671875,0.552978515625,0.691650390625,0.485107421875,-0.1220703050494194,-0.7019042372703552,-0.3662109076976776,66.66667175292969,266.0,1.0,WarmUp
13444.396484375,13380.291015625,13791.7421875,13704.927734375,13641.806640625,13696.5234375,13871.671875,13975.7421875,0.5498046875,0.689208984375,0.48291015625,-0.0610351525247097,-0.6103515028953552,-0.2746581733226776,66.66667175292969,267.0,1.0,WarmUp
13531.568359375,13467.3740234375,13878.9140625,13792.0107421875,13729.2470703125,13783.5166015625,13958.7548828125,14063.3603515625,0.551025390625,0.688720703125,0.482666015625,-0.0610351525247097,-0.6713866591453552,-0.2441406100988388,66.66667175292969,268.0,1.0,WarmUp
13605.865234375,13541.939453125,13953.658203125,13866.6650390625,13803.9013671875,13858.439453125,14033.7666015625,14138.1943359375,0.551513671875,0.689208984375,0.4853515625,-0.1220703050494194,-0.7324218153953552,-0.2441406100988388,66.66667175292969,269.0,1.0,WarmUp
13692.7685546875,13628.6640625,14040.830078125,13954.10546875,13891.0732421875,13945.5224609375,14120.5810546875,14224.9189453125,0.55126953125,0.690185546875,0.48583984375,-0.0610351525247097,-0.6713866591453552,-0.2441406100988388,66.66667175292969,270.0,1.0,WarmUp
13821.5146484375,13757.4990234375,14169.576171875,14083.208984375,14019.998046875,14074.7158203125,14249.6845703125,14354.380859375,0.55029296875,0.689453125,0.48583984375,-0.1525878757238388,-0.7324218153953552,-0.1220703050494194,66.66667175292969,271.0,1.0,WarmUp
13941.3203125,13877.21484375,14289.560546875,14202.8359375,14139.625,14194.69921875,14369.3115234375,14474.275390625,0.54736328125,0.684326171875,0.488037109375,-0.2136230319738388,-0.8239745497703552,-0.2136230319738388,66.66667175292969,272.0,1.0,WarmUp
14033.677734375,13969.21484375,14382.185546875,14295.103515625,14231.892578125,14287.3251953125,14461.490234375,14566.8115234375,0.547119140625,0.684814453125,0.487548828125,-0.0610351525247097,-0.7019042372703552,-0.0915527269244194,66.66667175292969,273.0,1.0,WarmUp
14084.1923828125,14019.8193359375,14433.05859375,14345.6181640625,14282.9443359375,14338.0185546875,14512.630859375,14617.5048828125,0.54833984375,0.689697265625,0.487548828125,0.03051757626235485,-0.7934569716453552,-0.0610351525247097,66.66667175292969,274.0,1.0,WarmUp
14164.1220703125,14099.4814453125,14513.2568359375,14426.0849609375,14363.3212890625,14418.0380859375,14593.1865234375,14697.8818359375,0.550537109375,0.68994140625,0.486328125,0.0915527269244194,-0.8544921278953552,0.03051757626235485,66.66667175292969,275.0,1.0,WarmUp
14269.7119140625,14205.0703125,14618.8466796875,14532.0322265625,14469.0,14523.9853515625,14699.0439453125,14803.8291015625,0.551025390625,0.68603515625,0.48486328125,0.03051757626235485,-0.7019042372703552,0.03051757626235485,66.66667175292969,276.0,1.0,WarmUp
14377.8046875,14313.521484375,14727.20703125,14640.482421875,14577.451171875,14632.4365234375,14807.1376953125,14912.1015625,0.55517578125,0.68505859375,0.48291015625,0.03051757626235485,-0.7019042372703552,-0.03051757626235485,66.66667175292969,277.0,1.0,WarmUp
14438.8701171875,14374.4072265625,14788.2724609375,14701.5478515625,14638.6943359375,14693.5009765625,14868.0234375,14973.255859375,0.55615234375,0.689697265625,0.481689453125,0.03051757626235485,-0.8239745497703552,-0.0915527269244194,66.66667175292969,278.0,1.0,WarmUp
14478.65625,14413.92578125,14827.96875,14741.244140625,14678.033203125,14733.1982421875,14907.7197265625,15012.86328125,0.5546875,0.69189453125,0.480712890625,-0.03051757626235485,-0.7324218153953552,-0.1220703050494194,66.66667175292969,279.0,1.0,WarmUp
14533.1943359375,14468.3740234375,14882.5966796875,14795.7822265625,14732.572265625,14787.5576171875,14962.4375,15067.22265625,0.552978515625,0.6904296875,0.48193359375,-0.0610351525247097,-0.7324218153953552,-0.1220703050494194,66.66667175292969,280.0,1.0,WarmUp
14638.2470703125,14573.875,14988.1865234375,14901.55078125,14838.2509765625,14893.236328125,15068.02734375,15173.080078125,0.553955078125,0.685791015625,0.484130859375,-0.1220703050494194,-0.7324218153953552,-0.1220703050494194,66.66667175292969,281.0,1.0,WarmUp
14745.0888671875,14681.0732421875,15095.7431640625,15008.6611328125,14946.076171875,15001.0615234375,15175.404296875,15280.63671875,0.55322265625,0.68798828125,0.483642578125,-0.03051757626235485,-0.7019042372703552,-0.0915527269244194,66.66667175292969,282.0,1.0,WarmUp
14817.240234375,14752.6884765625,15167.8046875,15080.8125,15018.048828125,15073.212890625,15247.376953125,15352.609375,0.55126953125,0.690185546875,0.48388671875,0.0610351525247097,-0.8544921278953552,-0.1220703050494194,66.66667175292969,283.0,1.0,WarmUp
14875.3544921875,14810.802734375,15226.0087890625,15138.9267578125,15076.341796875,15131.05859375,15305.40234375,15410.9921875,0.551513671875,0.6904296875,0.482666015625,-0.03051757626235485,-0.8239745497703552,-0.1220703050494194,66.66667175292969,284.0,1.0,WarmUp
14970.841796875,14906.2001953125,15321.1376953125,15234.1455078125,15171.6494140625,15226.5458984375,15398.4755859375,15504.4228515625,0.553466796875,0.689697265625,0.483642578125,-0.03051757626235485,-0.8544921278953552,-0.1220703050494194,66.66667175292969,285.0,1.0,WarmUp
15120.8662109375,15056.404296875,15470.1796875,15383.0966796875,15321.9423828125,15377.1962890625,15540.6318359375,15646.5791015625,0.552978515625,0.685791015625,0.484619140625,0.03051757626235485,-0.7629393935203552,-0.0915527269244194,66.66667175292969,286.0,1.0,WarmUp
15287.341796875,15222.34375,15627.267578125,15540.7216796875,15488.7763671875,15544.4765625,15713.1875,15819.0458984375,0.55322265625,0.6904296875,0.481689453125,-0.03051757626235485,-0.7934569716453552,-0.1220703050494194,66.66667175292969,287.0,1.0,WarmUp
15423.2412109375,15358.15234375,15751.3642578125,15664.9970703125,15624.40625,15680.017578125,15853.9140625,15959.59375,0.5517578125,0.693603515625,0.48193359375,-0.03051757626235485,-0.7934569716453552,-0.1831054538488388,66.66667175292969,288.0,1.0,WarmUp
15548.947265625,15483.8583984375,15895.48828125,15808.5849609375,15747.4306640625,15802.9521484375,15981.6767578125,16086.9091796875,0.551025390625,0.688232421875,0.482666015625,-0.03051757626235485,-0.7934569716453552,-0.2441406100988388,66.66667175292969,289.0,1.0,WarmUp
15694.6806640625,15629.32421875,16056.0634765625,15969.3388671875,15886.9951171875,15941.6220703125,16136.9765625,16242.208984375,0.55078125,0.68896484375,0.484375,-0.1220703050494194,-0.8850097060203552,-0.1220703050494194,66.66667175292969,290.0,1.0,WarmUp
15854.00390625,15788.2900390625,16252.4013671875,16165.318359375,16085.92578125,16141.08984375,16332.509765625,16438.27734375,0.55078125,0.689453125,0.485107421875,-0.1220703050494194,-0.7324218153953552,-0.1220703050494194,66.66667175292969,291.0,1.0,WarmUp
16057.3154296875,15991.6005859375,16459.556640625,16372.2958984375,16308.3701171875,16363.9814453125,16533.853515625,16639.17578125,0.549072265625,0.690673828125,0.48388671875,-0.0610351525247097,-0.7934569716453552,-0.2441406100988388,66.66667175292969,292.0,1.0,WarmUp
16281.5478515625,16216.0126953125,16617.71875,16530.099609375,16488.16796875,16543.779296875,16695.591796875,16800.107421875,0.55126953125,0.690673828125,0.484619140625,-0.0915527269244194,-0.7324218153953552,-0.2136230319738388,66.66667175292969,293.0,1.0,WarmUp
16441.408203125,16376.2294921875,16777.578125,16689.69140625,16644.71875,16700.8671875,16869.220703125,16974.720703125,0.549560546875,0.690673828125,0.4853515625,-0.1525878757238388,-0.7324218153953552,-0.1525878757238388,66.66667175292969,294.0,1.0,WarmUp
16608.95703125,16543.779296875,16961.845703125,16874.31640625,16813.072265625,16868.951171875,17043.1171875,17149.51171875,0.55029296875,0.687744140625,0.48388671875,-0.1831054538488388,-0.7629393935203552,-0.1831054538488388,66.66667175292969,295.0,1.0,WarmUp
16820.76171875,16754.869140625,17174.634765625,17087.193359375,17022.732421875,17078.87890625,17255.546875,17361.8515625,0.548583984375,0.688232421875,0.486572265625,-0.0915527269244194,-0.7934569716453552,-0.1525878757238388,66.66667175292969,296.0,1.0,WarmUp
17023.89453125,16958.001953125,17380.26953125,17292.65234375,17213.615234375,17270.388671875,17461.00390625,17567.3984375,0.547119140625,0.689453125,0.483642578125,-0.1220703050494194,-0.8544921278953552,-0.0915527269244194,66.66667175292969,297.0,1.0,WarmUp
17199.490234375,17133.41796875,17555.41796875,17468.24609375,17391.71484375,17448.30859375,17636.599609375,17742.81640625,0.55078125,0.688720703125,0.487060546875,-0.1220703050494194,-0.8239745497703552,-0.0610351525247097,66.66667175292969,298.0,1.0,WarmUp
17336.908203125,17270.388671875,17690.87109375,17603.609375,17541.29296875,17597.619140625,17771.962890625,17878.53515625,0.550048828125,0.6875,0.48681640625,-0.0610351525247097,-0.8850097060203552,-0.1220703050494194,66.66667175292969,299.0,1.0,WarmUp
17489.705078125,17423.185546875,17844.29296875,17756.8515625,17694.982421875,17750.951171875,17924.580078125,18031.509765625,0.551025390625,0.6875,0.484130859375,-0.03051757626235485,-0.8850097060203552,-0.0610351525247097,66.66667175292969,300.0,1.0,WarmUp
17665.74609375,17599.49609375,18020.513671875,17933.341796875,17871.203125,17927.3515625,18100.623046875,18208.0,0.553466796875,0.6884765625,0.484375,0.03051757626235485,-0.8850097060203552,-0.0610351525247097,66.66667175292969,301.0,1.0,WarmUp
17847.958984375,17782.064453125,18203.529296875,18116.0,18054.041015625,18110.63671875,18283.548828125,18390.658203125,0.552978515625,0.6884765625,0.483154296875,0.0610351525247097,-0.9155272841453552,-0.1220703050494194,66.66667175292969,302.0,1.0,WarmUp
17979.296875,17912.77734375,18334.779296875,18247.517578125,18185.46875,18241.70703125,18415.06640625,18522.17578125,0.552490234375,0.688232421875,0.483154296875,-0.03051757626235485,-0.8544921278953552,-0.0915527269244194,66.66667175292969,303.0,1.0,WarmUp
18080.953125,18014.43359375,18436.8828125,18349.263671875,18287.572265625,18343.80859375,18517.169921875,18624.45703125,0.552734375,0.688232421875,0.48291015625,0.0610351525247097,-0.7629393935203552,-0.1525878757238388,66.66667175292969,304.0,1.0,WarmUp
18183.32421875,18116.984375,18539.1640625,18451.72265625,18390.033203125,18446.537109375,18619.80859375,18726.91796875,0.552978515625,0.687744140625,0.485595703125,0.0,-0.7629393935203552,-0.1220703050494194,66.66667175292969,305.0,1.0,WarmUp
18328.07421875,18261.64453125,18684.001953125,18596.47265625,18534.693359375,18591.287109375,18764.46875,18871.400390625,0.552490234375,0.689208984375,0.484130859375,0.0,-0.8544921278953552,-0.1220703050494194,66.66667175292969,306.0,1.0,WarmUp
18461.111328125,18394.50390625,18816.861328125,18729.51171875,18667.8203125,18724.326171875,18897.328125,19004.6171875,0.55419921875,0.689453125,0.47998046875,0.0610351525247097,-0.8239745497703552,-0.1220703050494194,66.66667175292969,307.0,1.0,WarmUp
18560.173828125,18493.38671875,18916.283203125,18828.57421875,18767.240234375,18823.478515625,18996.5703125,19103.6796875,0.552734375,0.690673828125,0.483154296875,-0.03051757626235485,-0.8239745497703552,-0.2441406100988388,66.66667175292969,308.0,1.0,WarmUp
18611.494140625,18545.064453125,18967.6015625,18880.51953125,18818.470703125,18875.154296875,19048.068359375,19155.71484375,0.55419921875,0.688720703125,0.482421875,-0.03051757626235485,-0.7934569716453552,-0.2746581733226776,66.66667175292969,309.0,1.0,WarmUp
18682.39453125,18615.6953125,19038.591796875,18951.330078125,18889.37109375,18946.591796875,19119.146484375,19226.79296875,0.554931640625,0.690673828125,0.482421875,0.0610351525247097,-0.7629393935203552,-0.1831054538488388,66.66667175292969,310.0,1.0,WarmUp
18782.9765625,18715.921875,19139.173828125,19051.822265625,18990.04296875,19047.083984375,19219.908203125,19327.375,0.554443359375,0.689208984375,0.483154296875,-0.0610351525247097,-0.7019042372703552,-0.1525878757238388,66.66667175292969,311.0,1.0,WarmUp
18897.1484375,18830.2734375,19253.525390625,19166.443359375,19104.662109375,19161.615234375,19334.259765625,19441.7265625,0.5517578125,0.6884765625,0.482666015625,-0.0610351525247097,-0.7019042372703552,-0.1831054538488388,66.66667175292969,312.0,1.0,WarmUp
18967.064453125,18900.099609375,19323.53125,19236.001953125,19174.490234375,19231.53125,19404.265625,19511.732421875,0.5517578125,0.6875,0.483642578125,-0.0610351525247097,-0.7324218153953552,-0.0610351525247097,66.66667175292969,313.0,1.0,WarmUp
19016.685546875,18949.8984375,19373.599609375,19286.0703125,19224.37890625,19281.599609375,19453.88671875,19561.80078125,0.552001953125,0.68798828125,0.483154296875,-0.03051757626235485,-0.8544921278953552,-0.1220703050494194,66.66667175292969,314.0,1.0,WarmUp
19077.482421875,19010.427734375,19434.484375,19346.77734375,19285.17578125,19342.216796875,19514.59375,19622.330078125,0.55078125,0.689697265625,0.485107421875,0.0,-0.7934569716453552,-0.0915527269244194,66.66667175292969,315.0,1.0,WarmUp
19188.16796875,19121.11328125,19545.171875,19457.640625,19396.041015625,19453.08203125,19625.458984375,19733.103515625,0.55078125,0.687744140625,0.484130859375,0.0610351525247097,-0.8239745497703552,-0.2136230319738388,66.66667175292969,316.0,1.0,WarmUp
19296.529296875,19229.474609375,19653.62109375,19566.091796875,19504.3125,19561.443359375,19733.998046875,19841.46484375,0.552734375,0.68701171875,0.4853515625,-0.0610351525247097,-0.7629393935203552,-0.2136230319738388,66.66667175292969,317.0,1.0,WarmUp
19372.16796875,19304.845703125,19728.72265625,19641.015625,19579.951171875,19636.8125,19809.189453125,19916.8359375,0.552001953125,0.68896484375,0.480224609375,-0.1525878757238388,-0.7019042372703552,-0.1525878757238388,66.66667175292969,318.0,1.0,WarmUp
19409.8984375,19342.396484375,19766.6328125,19678.744140625,19617.58984375,19674.810546875,19846.830078125,19954.744140625,0.55126953125,0.688232421875,0.48095703125,-0.0915527269244194,-0.7019042372703552,-0.0610351525247097,66.66667175292969,319.0,1.0,WarmUp
19470.6953125,19403.37109375,19827.697265625,19740.078125,19678.744140625,19735.787109375,19908.07421875,20015.80859375,0.5498046875,0.688720703125,0.48486328125,-0.1525878757238388,-0.8239745497703552,-0.1220703050494194,66.66667175292969,320.0,1.0,WarmUp
19558.314453125,19491.34765625,19915.404296875,19827.697265625,19766.720703125,19823.2265625,19995.9609375,20103.875,0.552001953125,0.68798828125,0.486083984375,-0.03051757626235485,-0.8239745497703552,-0.1525878757238388,66.66667175292969,321.0,1.0,WarmUp
19648.79296875,19581.470703125,20006.33203125,19918.265625,19857.380859375,19914.2421875,20086.529296875,20194.623046875,0.552001953125,0.689208984375,0.4853515625,0.0,-0.8544921278953552,-0.1525878757238388,66.66667175292969,322.0,1.0,WarmUp
19692.423828125,19624.83203125,20049.873046875,19962.25390625,19900.921875,19957.962890625,20130.25,20237.806640625,0.552490234375,0.68994140625,0.484375,0.0,-0.7934569716453552,-0.1220703050494194,66.66667175292969,323.0,1.0,WarmUp
19703.689453125,19636.365234375,20060.69140625,19973.341796875,19911.91796875,19968.9609375,20141.158203125,20248.892578125,0.55224609375,0.690673828125,0.48388671875,0.0610351525247097,-0.8544921278953552,-0.0915527269244194,66.66667175292969,324.0,1.0,WarmUp
19723.26953125,19655.767578125,20080.00390625,19992.65234375,19931.23046875,19988.361328125,20160.291015625,20268.47265625,0.554443359375,0.690185546875,0.483154296875,0.0610351525247097,-0.7629393935203552,-0.1220703050494194,66.66667175292969,325.0,1.0,WarmUp
19778.701171875,19711.109375,20135.79296875,20048.443359375,19986.751953125,20043.97265625,20216.259765625,20324.083984375,0.553466796875,0.690673828125,0.484619140625,0.0610351525247097,-0.7934569716453552,-0.2441406100988388,66.66667175292969,326.0,1.0,WarmUp
19837.7109375,19770.208984375,20195.337890625,20107.451171875,20045.759765625,20103.25,20275.626953125,20383.451171875,0.552001953125,0.68994140625,0.484375,0.0610351525247097,-0.7934569716453552,-0.2441406100988388,66.66667175292969,327.0,1.0,WarmUp
19856.486328125,19788.71484375,20213.935546875,20125.958984375,20064.177734375,20121.3984375,20293.685546875,20401.779296875,0.5517578125,0.689208984375,0.484375,-0.0915527269244194,-0.7934569716453552,-0.3356933295726776,66.66667175292969,328.0,1.0,WarmUp
19850.5859375,19783.08203125,20207.85546875,20120.05859375,20058.544921875,20115.765625,20287.875,20396.056640625,0.54931640625,0.686767578125,0.483154296875,-0.03051757626235485,-0.8850097060203552,-0.1525878757238388,66.66667175292969,329.0,1.0,WarmUp
19864.533203125,19796.76171875,20221.982421875,20133.826171875,20072.671875,20129.802734375,20302.08984375,20409.916015625,0.547607421875,0.686279296875,0.4814453125,0.03051757626235485,-0.8239745497703552,-0.0610351525247097,66.66667175292969,330.0,1.0,WarmUp
19923.36328125,19855.591796875,20281.169921875,20192.65625,20131.591796875,20188.900390625,20360.7421875,20468.833984375,0.550048828125,0.6875,0.483642578125,0.0,-0.9155272841453552,-0.0915527269244194,66.66667175292969,331.0,1.0,WarmUp
19985.232421875,19917.193359375,20342.859375,20254.615234375,20193.728515625,20250.771484375,20422.611328125,20530.79296875,0.549560546875,0.687744140625,0.481689453125,-0.0610351525247097,-0.9155272841453552,-0.03051757626235485,66.66667175292969,332.0,1.0,WarmUp
20011.517578125,19943.658203125,20368.966796875,20281.169921875,20219.8359375,20276.966796875,20449.076171875,20557.2578125,0.551025390625,0.688232421875,0.483154296875,-0.0915527269244194,-0.8850097060203552,-0.0915527269244194,66.66667175292969,333.0,1.0,WarmUp
19998.642578125,19930.962890625,20356.361328125,20268.47265625,20207.140625,20264.091796875,20436.46875,20544.3828125,0.55224609375,0.689208984375,0.482666015625,-0.03051757626235485,-0.8850097060203552,-0.1831054538488388,66.66667175292969,334.0,1.0,WarmUp
20003.828125,19936.1484375,20361.634765625,20273.837890625,20212.59375,20269.546875,20441.923828125,20549.658203125,0.55224609375,0.689208984375,0.485107421875,0.0610351525247097,-0.8239745497703552,-0.1525878757238388,66.66667175292969,335.0,1.0,WarmUp
20042.2734375,19974.771484375,20400.259765625,20312.283203125,20250.859375,20308.259765625,20480.189453125,20588.37109375,0.5517578125,0.68994140625,0.484619140625,-0.03051757626235485,-0.8544921278953552,-0.1220703050494194,66.66667175292969,336.0,1.0,WarmUp
20095.650390625,20027.431640625,20453.27734375,20365.2109375,20303.521484375,20361.099609375,20533.029296875,20641.30078125,0.550048828125,0.688232421875,0.482421875,0.0610351525247097,-0.7629393935203552,-0.1220703050494194,66.66667175292969,337.0,1.0,WarmUp
20101.013671875,20032.974609375,20458.8203125,20370.84375,20309.064453125,20366.552734375,20538.302734375,20646.93359375,0.55078125,0.688720703125,0.482421875,0.0,-0.7934569716453552,-0.1525878757238388,66.66667175292969,338.0,1.0,WarmUp
20080.80859375,20013.126953125,20438.8828125,20350.638671875,20289.3046875,20346.435546875,20518.634765625,20626.99609375,0.549560546875,0.6884765625,0.479736328125,0.03051757626235485,-0.8850097060203552,-0.1831054538488388,66.66667175292969,339.0,1.0,WarmUp
20075.80078125,20008.56640625,20434.0546875,20345.720703125,20284.65625,20341.876953125,20513.984375,20622.16796875,0.550537109375,0.688720703125,0.481689453125,-0.03051757626235485,-0.8239745497703552,-0.1525878757238388,66.66667175292969,340.0,1.0,WarmUp
20119.87890625,20052.376953125,20477.775390625,20389.9765625,20328.376953125,20385.5078125,20557.705078125,20666.15625,0.5517578125,0.688720703125,0.480712890625,-0.03051757626235485,-0.8850097060203552,-0.1525878757238388,66.66667175292969,341.0,1.0,WarmUp
20159.666015625,20092.07421875,20517.47265625,20429.583984375,20368.4296875,20425.115234375,20597.849609375,20706.03125,0.55224609375,0.6884765625,0.482421875,-0.0610351525247097,-0.8850097060203552,-0.1525878757238388,66.66667175292969,342.0,1.0,WarmUp
20167.17578125,20099.046875,20524.892578125,20436.916015625,20375.8515625,20432.625,20604.375,20712.826171875,0.55322265625,0.691162109375,0.48486328125,-0.03051757626235485,-0.8239745497703552,-0.1525878757238388,66.66667175292969,343.0,1.0,WarmUp
20131.591796875,20063.91015625,20489.666015625,20401.689453125,20340.267578125,20397.666015625,20569.060546875,20677.689453125,0.552001953125,0.690185546875,0.4853515625,0.0610351525247097,-0.8544921278953552,-0.1525878757238388,66.66667175292969,344.0,1.0,WarmUp
20118.716796875,20051.125,20476.791015625,20389.173828125,20327.392578125,20384.791015625,20556.720703125,20665.171875,0.552734375,0.6875,0.486572265625,0.0610351525247097,-0.7324218153953552,-0.1525878757238388,66.66667175292969,345.0,1.0,WarmUp
20129.53515625,20061.5859375,20487.7890625,20399.8125,20338.658203125,20395.431640625,20567.5390625,20675.900390625,0.5517578125,0.688232421875,0.486083984375,-0.03051757626235485,-0.7934569716453552,-0.1220703050494194,66.66667175292969,346.0,1.0,WarmUp
20153.763671875,20085.63671875,20511.75,20423.326171875,20362.796875,20419.392578125,20591.6796875,20700.220703125,0.551513671875,0.685546875,0.48486328125,0.0,-0.7934569716453552,-0.1831054538488388,66.66667175292969,347.0,1.0,WarmUp
20142.140625,20074.638671875,20500.39453125,20412.150390625,20351.17578125,20408.037109375,20579.966796875,20688.685546875,0.552001953125,0.6875,0.48583984375,-0.1220703050494194,-0.8239745497703552,-0.0610351525247097,66.66667175292969,348.0,1.0,WarmUp
20119.25390625,20051.83984375,20477.5078125,20389.173828125,20328.107421875,20385.23828125,20556.810546875,20665.439453125,0.552490234375,0.68798828125,0.485107421875,-0.0610351525247097,-0.8239745497703552,-0.0610351525247097,66.66667175292969,349.0,1.0,WarmUp
20111.654296875,20043.97265625,20469.818359375,20381.484375,20320.5078125,20377.728515625,20549.2109375,20657.572265625,0.552490234375,0.687744140625,0.485595703125,-0.0610351525247097,-0.8239745497703552,-0.1525878757238388,66.66667175292969,350.0,1.0,WarmUp
20165.833984375,20098.421875,20524.087890625,20435.6640625,20374.779296875,20431.998046875,20603.302734375,20711.931640625,0.551025390625,0.6884765625,0.485595703125,-0.0610351525247097,-0.8850097060203552,-0.2746581733226776,66.66667175292969,351.0,1.0,WarmUp
20231.7265625,20163.8671875,20589.4453125,20501.736328125,20440.58203125,20497.802734375,20669.462890625,20777.646484375,0.55126953125,0.68896484375,0.484375,-0.03051757626235485,-0.8239745497703552,-0.1831054538488388,66.66667175292969,352.0,1.0,WarmUp
20280.0078125,20212.326171875,20637.90234375,20549.837890625,20489.21875,20546.349609375,20718.1015625,20826.283203125,0.552734375,0.691162109375,0.48193359375,0.0,-0.8239745497703552,-0.2136230319738388,66.66667175292969,353.0,1.0,WarmUp
20297.888671875,20230.20703125,20655.78515625,20567.986328125,20507.1015625,20564.5,20736.25,20844.5234375,0.552001953125,0.6923828125,0.48291015625,0.03051757626235485,-0.7934569716453552,-0.1831054538488388,66.66667175292969,354.0,1.0,WarmUp
20364.943359375,20296.994140625,20722.75,20635.04296875,20573.88671875,20631.64453125,20802.94921875,20911.48828125,0.549560546875,0.68994140625,0.485595703125,-0.0610351525247097,-0.8239745497703552,-0.1831054538488388,66.66667175292969,355.0,1.0,WarmUp
20487.162109375,20419.125,20844.880859375,20757.26171875,20696.197265625,20754.04296875,20924.98828125,21033.70703125,0.548583984375,0.689208984375,0.482666015625,0.0,-0.7934569716453552,-0.1220703050494194,66.66667175292969,356.0,1.0,WarmUp
20631.376953125,20563.6953125,20989.541015625,20901.654296875,20840.767578125,20898.435546875,21069.91796875,21177.921875,0.550048828125,0.690185546875,0.484619140625,0.03051757626235485,-0.8850097060203552,-0.1525878757238388,66.66667175292969,357.0,1.0,WarmUp
20736.072265625,20668.212890625,21094.326171875,21006.439453125,20945.73046875,21003.041015625,21174.255859375,21282.974609375,0.5517578125,0.69091796875,0.483154296875,0.03051757626235485,-0.8544921278953552,-0.2441406100988388,66.66667175292969,358.0,1.0,WarmUp
20823.779296875,20755.384765625,21181.765625,21094.146484375,21032.9921875,21090.5703125,21261.517578125,21370.4140625,0.552734375,0.690185546875,0.48291015625,-0.0610351525247097,-0.7629393935203552,-0.2136230319738388,66.66667175292969,359.0,1.0,WarmUp
20919.177734375,20850.78125,21277.162109375,21189.72265625,21128.748046875,21186.146484375,21356.9140625,21466.4375,0.552490234375,0.68994140625,0.48388671875,-0.0915527269244194,-0.8239745497703552,-0.2136230319738388,66.66667175292969,360.0,1.0,WarmUp
21062.048828125,20993.474609375,21420.21484375,21332.953125,21271.798828125,21329.197265625,21499.787109375,21609.48828125,0.55126953125,0.688720703125,0.484375,-0.0610351525247097,-0.8239745497703552,-0.1220703050494194,66.66667175292969,361.0,1.0,WarmUp
21207.962890625,21139.4765625,21566.662109375,21478.775390625,21417.80078125,21475.736328125,21646.4140625,21755.400390625,0.552001953125,0.68798828125,0.484130859375,-0.0610351525247097,-0.7934569716453552,-0.2136230319738388,66.66667175292969,362.0,1.0,WarmUp
21327.052734375,21258.65625,21685.751953125,21598.22265625,21536.890625,21595.09375,21765.771484375,21874.669921875,0.552734375,0.689208984375,0.482666015625,-0.0610351525247097,-0.7324218153953552,-0.2136230319738388,66.66667175292969,363.0,1.0,WarmUp
21422.44921875,21353.875,21780.970703125,21693.53125,21632.556640625,21690.40234375,21860.8125,21970.15625,0.552734375,0.68896484375,0.486572265625,0.03051757626235485,-0.7934569716453552,-0.0915527269244194,66.66667175292969,364.0,1.0,WarmUp
21547.171875,21478.41796875,21906.05078125,21818.25390625,21757.279296875,21815.21484375,21985.712890625,22095.236328125,0.551513671875,0.68896484375,0.48388671875,-0.03051757626235485,-0.8544921278953552,-0.2136230319738388,66.66667175292969,365.0,1.0,WarmUp
21723.03515625,21654.103515625,22081.916015625,21994.02734375,21933.142578125,21991.255859375,22161.845703125,22271.369140625,0.55224609375,0.689208984375,0.48486328125,-0.0610351525247097,-0.7629393935203552,-0.0915527269244194,66.66667175292969,366.0,1.0,WarmUp
21920.267578125,21850.88671875,22279.146484375,22190.9921875,22130.015625,22188.130859375,22359.076171875,22468.689453125,0.552490234375,0.689697265625,0.4853515625,-0.0610351525247097,-0.8850097060203552,-0.2136230319738388,66.66667175292969,367.0,1.0,WarmUp
22092.46484375,22023.443359375,22452.060546875,22364.083984375,22302.83984375,22360.955078125,22531.36328125,22641.333984375,0.552490234375,0.690673828125,0.484619140625,0.03051757626235485,-0.8850097060203552,-0.2746581733226776,66.66667175292969,368.0,1.0,WarmUp
22246.69140625,22178.02734375,22606.82421875,22518.578125,22457.693359375,22515.71875,22686.0390625,22795.740234375,0.5517578125,0.692138671875,0.484619140625,0.03051757626235485,-0.8544921278953552,-0.2441406100988388,66.66667175292969,369.0,1.0,WarmUp
22432.748046875,22363.7265625,22792.701171875,22704.45703125,22644.017578125,22702.04296875,22872.00390625,22981.974609375,0.551513671875,0.689697265625,0.485595703125,0.03051757626235485,-0.9155272841453552,-0.0915527269244194,66.66667175292969,370.0,1.0,WarmUp
22669.408203125,22600.029296875,23029.271484375,22941.205078125,22880.85546875,22939.060546875,23108.396484375,23218.724609375,0.552734375,0.687255859375,0.48388671875,0.0,-0.9155272841453552,-0.1220703050494194,66.66667175292969,371.0,1.0,WarmUp
22931.908203125,22862.794921875,23292.396484375,23204.0625,23143.98046875,23202.2734375,23371.25390625,23481.939453125,0.552734375,0.688232421875,0.484375,-0.0610351525247097,-0.7934569716453552,-0.0915527269244194,66.66667175292969,372.0,1.0,WarmUp
23162.130859375,23092.83984375,23522.529296875,23434.28515625,23374.29296875,23432.765625,23601.38671875,23712.4296875,0.5517578125,0.68896484375,0.483642578125,-0.0610351525247097,-0.7934569716453552,-0.03051757626235485,66.66667175292969,373.0,1.0,WarmUp
23374.47265625,23305.001953125,23735.228515625,23646.447265625,23586.3671875,23645.28515625,23813.37109375,23924.681640625,0.55078125,0.688232421875,0.48388671875,0.03051757626235485,-0.8239745497703552,-0.0610351525247097,66.66667175292969,374.0,1.0,WarmUp
23603.533203125,23533.4375,23964.111328125,23875.150390625,23815.337890625,23874.16796875,24042.341796875,24153.654296875,0.552001953125,0.687744140625,0.484375,-0.03051757626235485,-0.7934569716453552,-0.1220703050494194,66.66667175292969,375.0,1.0,WarmUp
23886.505859375,23816.767578125,24247.44140625,24159.197265625,24099.025390625,24157.587890625,24325.673828125,24437.87890625,0.553955078125,0.68896484375,0.4853515625,0.0915527269244194,-0.7934569716453552,-0.2441406100988388,66.66667175292969,376.0,1.0,WarmUp
24176.900390625,24107.072265625,24538.283203125,24449.94921875,24389.6875,24448.607421875,24616.693359375,24728.541015625,0.553466796875,0.690185546875,0.48486328125,0.0610351525247097,-0.7934569716453552,-0.1220703050494194,66.66667175292969,377.0,1.0,WarmUp
24442.080078125,24371.896484375,24803.375,24714.68359375,24655.2265625,24713.7890625,24881.873046875,24993.810546875,0.552978515625,0.689697265625,0.48193359375,0.03051757626235485,-0.8239745497703552,-0.0610351525247097,66.66667175292969,378.0,1.0,WarmUp
24674.001953125,24603.4609375,25035.564453125,24946.962890625,24887.1484375,24945.978515625,25113.6171875,25225.912109375,0.552001953125,0.68896484375,0.4853515625,0.03051757626235485,-0.8239745497703552,0.0,66.66667175292969,379.0,1.0,WarmUp
24929.70703125,24858.986328125,25291.357421875,25202.486328125,25142.673828125,25202.12890625,25369.052734375,25481.794921875,0.551025390625,0.68896484375,0.485107421875,-0.0610351525247097,-0.8544921278953552,-0.1220703050494194,66.66667175292969,380.0,1.0,WarmUp
25217.59765625,25146.96484375,25579.427734375,25490.734375,25430.83203125,25490.109375,25657.033203125,25770.04296875,0.5537109375,0.68994140625,0.48291015625,-0.0610351525247097,-0.8850097060203552,-0.03051757626235485,66.66667175292969,381.0,1.0,WarmUp
25523.904296875,25452.826171875,25885.466796875,25796.41796875,25737.408203125,25796.150390625,25963.162109375,26076.08203125,0.552490234375,0.691162109375,0.483642578125,-0.0915527269244194,-0.9155272841453552,-0.0915527269244194,66.66667175292969,382.0,1.0,WarmUp
25790.6953125,25719.349609375,26152.34765625,26063.38671875,26004.466796875,26063.654296875,26230.220703125,26343.3203125,0.552490234375,0.6884765625,0.481201171875,0.0915527269244194,-0.7934569716453552,0.0,66.66667175292969,383.0,1.0,WarmUp
26040.3203125,25969.15234375,26402.775390625,26313.458984375,26254.62890625,26313.90625,26480.203125,26593.66015625,0.552978515625,0.688232421875,0.481689453125,0.0610351525247097,-0.8544921278953552,-0.1220703050494194,66.66667175292969,384.0,1.0,WarmUp
26296.203125,26224.9453125,26658.837890625,26569.162109375,26510.33203125,26570.056640625,26735.7265625,26849.720703125,0.55224609375,0.687255859375,0.4853515625,0.0610351525247097,-0.8239745497703552,-0.0610351525247097,66.66667175292969,385.0,1.0,WarmUp
26604.65625,26533.220703125,26967.6484375,26877.794921875,26818.875,26878.779296875,27043.9140625,27158.353515625,0.550537109375,0.690185546875,0.486083984375,0.0915527269244194,-0.8239745497703552,-0.1831054538488388,66.66667175292969,386.0,1.0,WarmUp
26910.0703125,26838.544921875,27272.794921875,27183.208984375,27124.916015625,27184.640625,27349.328125,27464.126953125,0.552490234375,0.689697265625,0.4853515625,0.0,-0.8239745497703552,-0.1220703050494194,66.66667175292969,387.0,1.0,WarmUp
27187.6796875,27116.064453125,27550.76171875,27460.99609375,27402.703125,27462.60546875,27627.65234375,27742.00390625,0.55029296875,0.689697265625,0.4833984375,0.0,-0.7934569716453552,-0.1525878757238388,66.66667175292969,388.0,1.0,WarmUp
27425.234375,27353.439453125,27788.8515625,27698.8203125,27640.615234375,27700.517578125,27865.1171875,27979.826171875,0.55126953125,0.689208984375,0.484130859375,0.03051757626235485,-0.8544921278953552,-0.1220703050494194,66.66667175292969,389.0,1.0,WarmUp
27681.564453125,27609.591796875,28045.271484375,27955.060546875,27897.125,27957.1171875,28121.267578125,28236.513671875,0.552490234375,0.689453125,0.484619140625,-0.0610351525247097,-0.8239745497703552,-0.2746581733226776,66.66667175292969,390.0,1.0,WarmUp
27964.537109375,27892.564453125,28328.69140625,28238.033203125,28180.455078125,28240.71484375,28404.509765625,28520.0234375,0.5517578125,0.689208984375,0.486328125,-0.1220703050494194,-0.7934569716453552,-0.0915527269244194,66.66667175292969,391.0,1.0,WarmUp
28265.5703125,28193.5078125,28629.45703125,28538.9765625,28481.48828125,28541.48046875,28705.2734375,28821.14453125,0.552490234375,0.688720703125,0.485107421875,-0.1525878757238388,-0.8239745497703552,-0.1220703050494194,66.66667175292969,392.0,1.0,WarmUp
28519.84375,28447.603515625,28884.087890625,28793.33984375,28735.94140625,28796.111328125,28959.189453125,29075.5078125,0.55126953125,0.688232421875,0.486572265625,-0.0915527269244194,-0.8544921278953552,-0.0915527269244194,66.66667175292969,393.0,1.0,WarmUp
28746.490234375,28674.0703125,29110.82421875,29019.71875,28962.587890625,29023.115234375,29185.8359375,29302.244140625,0.552001953125,0.68896484375,0.489013671875,-0.0610351525247097,-0.8850097060203552,-0.0915527269244194,66.66667175292969,394.0,1.0,WarmUp
28970.365234375,28898.21484375,29335.056640625,29244.666015625,29187.087890625,29247.34765625,29410.337890625,29526.923828125,0.552001953125,0.68994140625,0.489013671875,-0.0610351525247097,-0.7934569716453552,-0.0915527269244194,66.66667175292969,395.0,1.0,WarmUp
29237.06640625,29164.916015625,29601.84765625,29511.45703125,29454.236328125,29514.40625,29677.216796875,29794.072265625,0.551513671875,0.690185546875,0.487060546875,-0.0610351525247097,-0.8239745497703552,-0.0915527269244194,66.66667175292969,396.0,1.0,WarmUp
29504.392578125,29431.974609375,29869.44140625,29778.873046875,29721.65234375,29782.091796875,29944.275390625,30061.3984375,0.55126953125,0.688720703125,0.48388671875,-0.03051757626235485,-0.8239745497703552,-0.1525878757238388,66.66667175292969,397.0,1.0,WarmUp
29743.9140625,29671.40625,30109.052734375,30017.6796875,29960.994140625,30021.791015625,30183.439453125,30301.009765625,0.55029296875,0.688720703125,0.484375,0.0610351525247097,-0.7934569716453552,-0.1831054538488388,66.66667175292969,398.0,1.0,WarmUp
29941.68359375,29868.7265625,30306.552734375,30215.1796875,30158.673828125,30219.203125,30380.849609375,30498.419921875,0.55419921875,0.689697265625,0.4833984375,0.0,-0.8239745497703552,-0.2136230319738388,66.66667175292969,399.0,1.0,WarmUp
30150.1796875,30077.58203125,30515.49609375,30424.033203125,30367.88671875,30428.326171875,30589.615234375,30707.365234375,0.552978515625,0.689208984375,0.484619140625,0.03051757626235485,-0.7629393935203552,-0.3051757514476776,66.66667175292969,400.0,1.0,WarmUp
30394.08203125,30321.21484375,30759.7578125,30668.205078125,30611.7890625,30672.5859375,30833.78515625,30951.53515625,0.552490234375,0.689208984375,0.482666015625,0.03051757626235485,-0.7934569716453552,-0.2136230319738388,66.66667175292969,401.0,1.0,WarmUp
30656.669921875,30583.71484375,31022.79296875,30930.8828125,30874.5546875,30935.62109375,31096.552734375,31214.5703125,0.552978515625,0.688232421875,0.484375,0.1220703050494194,-0.7934569716453552,-0.1220703050494194,66.66667175292969,402.0,1.0,WarmUp
30883.048828125,30810.181640625,31248.9921875,31156.9921875,31101.0234375,31161.8203125,31322.6640625,31441.126953125,0.551025390625,0.68798828125,0.48046875,0.0915527269244194,-0.7629393935203552,-0.1831054538488388,66.66667175292969,403.0,1.0,WarmUp
31074.201171875,31000.88671875,31440.412109375,31348.322265625,31291.908203125,31353.240234375,31513.63671875,31632.63671875,0.550537109375,0.6884765625,0.483154296875,0.03051757626235485,-0.7934569716453552,-0.1831054538488388,66.66667175292969,404.0,1.0,WarmUp
31265.263671875,31191.861328125,31631.654296875,31539.296875,31483.1484375,31544.66015625,31704.966796875,31823.87890625,0.551025390625,0.685546875,0.486328125,-0.03051757626235485,-0.8239745497703552,-0.1831054538488388,66.66667175292969,405.0,1.0,WarmUp
31499.599609375,31426.197265625,31866.078125,31773.900390625,31717.841796875,31779.17578125,31939.212890625,32058.9296875,0.55224609375,0.6865234375,0.486328125,0.03051757626235485,-0.7934569716453552,-0.2136230319738388,66.66667175292969,406.0,1.0,WarmUp
31753.873046875,31680.380859375,32120.263671875,32028.083984375,31972.205078125,32033.44921875,32193.486328125,32313.203125,0.5537109375,0.68798828125,0.484619140625,0.0,-0.7629393935203552,-0.0915527269244194,66.66667175292969,407.0,1.0,WarmUp
31976.853515625,31903.541015625,32343.6015625,32251.154296875,32195.990234375,32256.787109375,32416.646484375,32536.36328125,0.5537109375,0.6884765625,0.48291015625,0.03051757626235485,-0.7629393935203552,-0.1220703050494194,66.66667175292969,408.0,1.0,WarmUp
32149.23046875,32076.095703125,32516.068359375,32423.798828125,32368.3671875,32429.34375,32588.93359375,32709.09765625,0.553466796875,0.689697265625,0.484130859375,0.0610351525247097,-0.8239745497703552,-0.1525878757238388,66.66667175292969,409.0,1.0,WarmUp
32313.650390625,32240.248046875,32680.845703125,32588.21875,32532.876953125,32594.03125,32753.17578125,32873.515625,0.553466796875,0.687255859375,0.4853515625,0.03051757626235485,-0.7934569716453552,-0.2136230319738388,66.66667175292969,410.0,1.0,WarmUp
32520.44921875,32447.044921875,32888.0,32794.83984375,32740.2109375,32800.6484375,32959.97265625,33080.8515625,0.55322265625,0.688720703125,0.48388671875,0.03051757626235485,-0.7629393935203552,-0.2136230319738388,66.66667175292969,411.0,1.0,WarmUp
32755.41015625,32681.91796875,33122.9609375,33029.80078125,32975.171875,33035.69921875,33195.11328125,33315.90234375,0.55322265625,0.6884765625,0.483154296875,-0.03051757626235485,-0.7324218153953552,-0.1525878757238388,66.66667175292969,412.0,1.0,WarmUp
32958.453125,32885.05078125,33326.36328125,33233.0234375,33178.6640625,33239.1015625,33398.3359375,33519.3046875,0.55078125,0.689453125,0.4833984375,-0.1220703050494194,-0.7629393935203552,-0.1525878757238388,66.66667175292969,413.0,1.0,WarmUp
33107.046875,33033.82421875,33474.95703125,33381.70703125,33327.4375,33387.78515625,33546.484375,33667.8984375,0.548095703125,0.6884765625,0.48681640625,-0.0915527269244194,-0.7629393935203552,-0.1525878757238388,66.66667175292969,414.0,1.0,WarmUp
33249.3828125,33176.16015625,33617.5625,33523.86328125,33469.7734375,33529.94140625,33689.0859375,33810.32421875,0.549560546875,0.6884765625,0.486572265625,-0.0610351525247097,-0.7934569716453552,-0.0610351525247097,66.66667175292969,415.0,1.0,WarmUp
33436.9609375,33363.82421875,33804.87109375,33711.4375,33657.34765625,33717.69921875,33876.57421875,33997.62890625,0.55078125,0.689697265625,0.485595703125,0.03051757626235485,-0.7629393935203552,-0.0915527269244194,66.66667175292969,416.0,1.0,WarmUp
33658.51171875,33585.5546875,34026.8671875,33933.34765625,33879.2578125,33939.78515625,34098.3046875,34219.8984375,0.55029296875,0.6904296875,0.484619140625,-0.03051757626235485,-0.7629393935203552,-0.1831054538488388,66.66667175292969,417.0,1.0,WarmUp
33852.5234375,33779.12109375,34221.05859375,34127.359375,34073.44921875,34133.9765625,34292.5859375,34414.08984375,0.55126953125,0.689208984375,0.482666015625,-0.0610351525247097,-0.8850097060203552,-0.0915527269244194,66.66667175292969,418.0,1.0,WarmUp
33995.3046875,33921.63671875,34363.484375,34269.96484375,34216.140625,34276.9375,34435.1875,34556.87109375,0.5517578125,0.691162109375,0.486572265625,0.03051757626235485,-0.8544921278953552,-0.1220703050494194,66.66667175292969,419.0,1.0,WarmUp
34132.8125,34059.0546875,34501.26171875,34407.29296875,34354.0078125,34414.89453125,34572.6953125,34694.6484375,0.551513671875,0.689453125,0.485595703125,-0.03051757626235485,-0.7934569716453552,-0.0915527269244194,66.66667175292969,420.0,1.0,WarmUp
34316.45703125,34242.6953125,34685.08203125,34591.0234375,34537.55859375,34598.17578125,34756.16015625,34878.37890625,0.55078125,0.691650390625,0.48583984375,-0.03051757626235485,-0.7324218153953552,-0.0915527269244194,66.66667175292969,421.0,1.0,WarmUp
34540.95703125,34467.64453125,34909.76171875,34815.79296875,34762.328125,34823.125,34980.9296875,35103.1484375,0.552490234375,0.690673828125,0.485107421875,-0.0915527269244194,-0.7629393935203552,-0.1525878757238388,66.66667175292969,422.0,1.0,WarmUp
34735.59765625,34662.28125,35104.48828125,35010.25390625,34957.4140625,35017.94140625,35175.2109375,35298.14453125,0.5517578125,0.689208984375,0.4853515625,0.0610351525247097,-0.7019042372703552,-0.1220703050494194,66.66667175292969,423.0,1.0,WarmUp
34876.58984375,34803.09765625,35245.83984375,35151.16015625,35098.58984375,35159.02734375,35316.29296875,35439.3203125,0.55224609375,0.689208984375,0.482666015625,0.0915527269244194,-0.7019042372703552,-0.1220703050494194,66.66667175292969,424.0,1.0,WarmUp
35006.05078125,34932.0234375,35375.3046875,35280.53125,35228.05078125,35288.7578125,35445.75390625,35568.69140625,0.552734375,0.688232421875,0.486328125,0.0610351525247097,-0.7324218153953552,-0.1220703050494194,66.66667175292969,425.0,1.0,WarmUp
35184.2421875,35110.12109375,35553.66796875,35459.078125,35406.59375,35466.765625,35624.48046875,35747.4140625,0.551513671875,0.68798828125,0.487548828125,0.0915527269244194,-0.7324218153953552,-0.1220703050494194,66.66667175292969,426.0,1.0,WarmUp
35403.46484375,35329.97265625,35773.1640625,35678.39453125,35625.91015625,35686.6171875,35843.70703125,35967.17578125,0.552490234375,0.68896484375,0.48486328125,-0.03051757626235485,-0.7324218153953552,-0.1525878757238388,66.66667175292969,427.0,1.0,WarmUp
35585.23046875,35511.73828125,35955.1953125,35860.42578125,35807.765625,35868.65234375,36025.0234375,36148.94140625,0.553955078125,0.690673828125,0.481689453125,-0.03051757626235485,-0.7629393935203552,-0.1525878757238388,66.66667175292969,428.0,1.0,WarmUp
35709.68359375,35635.92578125,36079.7421875,35984.87890625,35932.578125,35992.92578125,36149.38671875,36273.6640625,0.553466796875,0.687744140625,0.484130859375,-0.0610351525247097,-0.8239745497703552,-0.1831054538488388,66.66667175292969,429.0,1.0,WarmUp
35821.17578125,35747.32421875,36191.3203125,36096.1015625,36044.15625,36104.41796875,36261.05859375,36385.24609375,0.55126953125,0.68798828125,0.483154296875,0.0,-0.7934569716453552,-0.1525878757238388,66.66667175292969,430.0,1.0,WarmUp
35981.125,35907.54296875,36351.44921875,36256.23046875,36204.46484375,36264.72265625,36421.1875,36545.4609375,0.551513671875,0.686767578125,0.481689453125,-0.03051757626235485,-0.7934569716453552,-0.2136230319738388,66.66667175292969,431.0,1.0,WarmUp
36180.859375,36106.921875,36551.18359375,36455.96484375,36404.5546875,36464.63671875,36620.83203125,36745.375,0.55224609375,0.6875,0.483642578125,-0.03051757626235485,-0.7324218153953552,-0.0610351525247097,66.66667175292969,432.0,1.0,WarmUp
36340.5390625,36266.6015625,36711.1328125,36615.82421875,36564.328125,36624.49609375,36780.33203125,36905.0546875,0.5537109375,0.68798828125,0.483642578125,-0.03051757626235485,-0.8850097060203552,-0.0610351525247097,66.66667175292969,433.0,1.0,WarmUp
36443.26953125,36369.59765625,36813.859375,36718.46484375,36666.96484375,36727.31640625,36883.15234375,37007.96484375,0.5546875,0.687744140625,0.484619140625,0.0,-0.8239745497703552,-0.1525878757238388,66.66667175292969,434.0,1.0,WarmUp
36530.7109375,36457.12890625,36901.5703125,36806.26171875,36754.40625,36814.75390625,36970.76953125,37095.671875,0.552734375,0.68798828125,0.48193359375,-0.03051757626235485,-0.8850097060203552,-0.1831054538488388,66.66667175292969,435.0,1.0,WarmUp
36663.56640625,36589.8984375,37034.51953125,36939.03125,36887.35546875,36947.97265625,37103.62890625,37228.53125,0.5546875,0.689453125,0.48193359375,-0.0610351525247097,-0.8239745497703552,-0.1220703050494194,66.66667175292969,436.0,1.0,WarmUp
36833.26171875,36759.14453125,37204.30078125,37108.7265625,37057.31640625,37117.66796875,37273.234375,37398.58203125,0.552001953125,0.6875,0.482421875,-0.03051757626235485,-0.8544921278953552,-0.1220703050494194,66.66667175292969,437.0,1.0,WarmUp
36961.65234375,36887.44140625,37332.69140625,37237.29296875,37185.97265625,37246.14453125,37401.890625,37527.23828125,0.552490234375,0.688720703125,0.482421875,-0.0610351525247097,-0.8239745497703552,-0.1220703050494194,66.66667175292969,438.0,1.0,WarmUp
37032.4609375,36958.69921875,37403.6796875,37308.19140625,37257.3203125,37317.40234375,37472.61328125,37598.49609375,0.55322265625,0.6884765625,0.485107421875,0.0,-0.8239745497703552,-0.2136230319738388,66.66667175292969,439.0,1.0,WarmUp
37094.33203125,37020.2109375,37465.81640625,37369.8828125,37319.45703125,37379.359375,37534.390625,37660.1875,0.55126953125,0.68994140625,0.486083984375,-0.0610351525247097,-0.8544921278953552,-0.1525878757238388,66.66667175292969,440.0,1.0,WarmUp
37201.62109375,37127.859375,37572.92578125,37477.08203125,37426.4765625,37486.6484375,37641.58984375,37767.38671875,0.55078125,0.691162109375,0.485107421875,-0.1220703050494194,-0.8239745497703552,-0.1525878757238388,66.66667175292969,441.0,1.0,WarmUp
37343.95703125,37270.1953125,37715.26171875,37619.5078125,37568.8125,37628.984375,37783.75,37910.16796875,0.548828125,0.690673828125,0.48681640625,-0.1525878757238388,-0.8544921278953552,-0.0915527269244194,66.66667175292969,442.0,1.0,WarmUp
