EEG 1,EEG 2,EEG 3,EEG 4,EEG 5,EEG 6,EEG 7,EEG 8,Accelerometer X,Accelerometer Y,Accelerometer Z,Gyroscope X,Gyroscope Y,Gyroscope Z,Battery Level,Counter,Validation Indicator,State
-19969.138671875,104411.6171875,-17850.908203125,-79250.8828125,-115243.3671875,94578.8203125,33432.66796875,185327.171875,-0.417724609375,0.871826171875,0.040283203125,0.0,0.0,0.0,66.66667175292969,1.0,1.0,WarmUp
39797.37109375,228.34542846679688,394.19537353515625,-9794.892578125,-21315.697265625,-849.7239379882812,-4150.71923828125,1369.5361328125,-0.430908203125,0.88134765625,0.030029296875,0.0,0.0,0.0,66.66667175292969,2.0,1.0,WarmUp
3980.39892578125,-111.22228240966797,-27.17972183227539,-29442.43359375,-38851.984375,-124.45452117919922,0.0,2767.056640625,-0.435791015625,0.883056640625,0.029052734375,0.0,0.0,0.0,66.66667175292969,3.0,1.0,WarmUp
-2274.6923828125,-795.8115234375,-1286.7452392578125,-10770.0546875,-8042.3369140625,0.0,-1.8775466680526733,1187.2353515625,-0.43701171875,0.884765625,0.029541015625,0.0,0.0,0.0,66.66667175292969,4.0,1.0,WarmUp
-3018.02197265625,-2176.523681640625,-3023.297119140625,-322.4015808105469,-1149.684326171875,-0.9834768176078796,-2236.962646484375,-164.59825134277344,-0.43505859375,0.885498046875,0.029541015625,0.0,0.0,0.0,66.66667175292969,5.0,1.0,WarmUp
-2976.626708984375,-2386.898193359375,-2861.470458984375,82.70146179199219,-1271.27783203125,-18.686059951782227,-14598.908203125,-74.7442398071289,-0.4365234375,0.88232421875,0.030517578125,0.0,0.0,0.0,66.66667175292969,6.0,1.0,WarmUp
-2099.0078125,-1621.0379638671875,-2152.65185546875,848.8298950195312,-1417.01123046875,94.68199157714844,-21414.40234375,551.283447265625,-0.438232421875,0.883056640625,0.02978515625,-5.187987804412842,-4.333495616912842,-4.669188976287842,66.66667175292969,7.0,1.0,WarmUp
2115.9951171875,-898.8978271484375,-1775.3544921875,930.100830078125,-1257.151611328125,1486.927490234375,-5768.89599609375,6264.92626953125,-0.438720703125,0.8837890625,0.027587890625,-1.4648436307907104,-1.8615721464157104,-1.2207030057907104,66.66667175292969,8.0,1.0,WarmUp
3018.82666015625,-349.7601013183594,-745.8330688476562,-726.3423461914062,-1331.0911865234375,1776.4273681640625,-1869.857666015625,18999.69921875,-0.43798828125,0.88623046875,0.027587890625,-0.5798339247703552,-1.2512205839157104,-0.3967284858226776,66.66667175292969,9.0,1.0,WarmUp
-885.9337768554688,-846.5947265625,-650.7040405273438,-1609.5045166015625,-1355.6781005859375,-735.4618530273438,-1495.5106201171875,3135.860595703125,-0.439453125,0.886474609375,0.02392578125,-0.3051757514476776,-1.0070799589157104,-0.2746581733226776,66.66667175292969,10.0,1.0,WarmUp
-972.7479858398438,-898.0037231445312,-743.5978393554688,-1002.162841796875,-782.2216796875,-930.9949340820312,-1061.529052734375,-731.0808715820312,-0.438720703125,0.8876953125,0.02490234375,-0.2441406100988388,-0.8850097060203552,-0.1525878757238388,66.66667175292969,11.0,1.0,WarmUp
-736.7135620117188,-747.3529663085938,-451.4158630371094,-591.6060180664062,-542.7003784179688,-707.0303955078125,-822.454833984375,-516.951171875,-0.43798828125,0.885986328125,0.02490234375,-0.1831054538488388,-0.7934569716453552,-0.0610351525247097,66.66667175292969,12.0,1.0,WarmUp
-684.4998779296875,-697.5532836914062,-384.00299072265625,-497.37103271484375,-509.2621765136719,-660.5387573242188,-764.5191040039062,-443.54803466796875,-0.439697265625,0.88525390625,0.023681640625,-0.1220703050494194,-0.7934569716453552,-0.0915527269244194,66.66667175292969,13.0,1.0,WarmUp
-690.5795288085938,-810.3848876953125,-363.0817565917969,-507.0270080566406,-566.7508544921875,-747.1741333007812,-790.4471435546875,-458.1213684082031,-0.437744140625,0.884521484375,0.024169921875,-0.0610351525247097,-0.8544921278953552,-0.1220703050494194,66.66667175292969,14.0,1.0,WarmUp
-629.6039428710938,-858.2175903320312,-267.50567626953125,-512.0338134765625,-543.23681640625,-769.972900390625,-695.6757202148438,-389.27801513671875,-0.4365234375,0.884033203125,0.023681640625,-0.03051757626235485,-0.8544921278953552,-0.2441406100988388,66.66667175292969,15.0,1.0,WarmUp
-685.6621704101562,-678.2413940429688,-171.21437072753906,-292.9866943359375,-400.72210693359375,-538.8558959960938,-617.2658081054688,-267.4162902832031,-0.4365234375,0.884765625,0.0224609375,0.0,-0.7629393935203552,-0.2441406100988388,66.66667175292969,16.0,1.0,WarmUp
-505.507080078125,-511.4973449707031,-146.5380401611328,-299.24517822265625,-309.61639404296875,-391.7814025878906,-472.4264831542969,-206.7089385986328,-0.4365234375,0.885009765625,0.023193359375,0.0915527269244194,-0.8239745497703552,-0.1831054538488388,66.66667175292969,17.0,1.0,WarmUp
-202.14918518066406,-340.282958984375,-124.63333129882812,-282.97308349609375,-228.6136474609375,-455.08154296875,-281.90020751953125,-148.77322387695312,-0.436767578125,0.88427734375,0.025146484375,0.1220703050494194,-0.8544921278953552,-0.2136230319738388,66.66667175292969,18.0,1.0,WarmUp
-208.6759033203125,-274.3900146484375,-104.51676177978516,-246.85267639160156,-197.3212127685547,-339.29949951171875,-213.41445922851562,-154.49526977539062,-0.438720703125,0.884521484375,0.0244140625,0.0915527269244194,-0.8239745497703552,-0.1525878757238388,66.66667175292969,19.0,1.0,WarmUp
-200.18223571777344,-257.8497314453125,-96.8277587890625,-233.70985412597656,-177.115234375,-234.15689086914062,-217.97422790527344,-142.2465057373047,-0.438232421875,0.88525390625,0.02392578125,-0.0610351525247097,-0.7934569716453552,-0.2746581733226776,66.66667175292969,20.0,1.0,WarmUp
-191.42034912109375,-246.49505615234375,-92.98326110839844,-224.76914978027344,-168.26394653320312,-212.96743774414062,-209.1229248046875,-137.1503143310547,-0.437744140625,0.885986328125,0.0244140625,0.0,-0.7629393935203552,-0.1831054538488388,66.66667175292969,21.0,1.0,WarmUp
-186.05592346191406,-238.8954620361328,-89.94342041015625,-216.99073791503906,-164.6876678466797,-206.7089385986328,-202.86444091796875,-134.1104736328125,-0.438232421875,0.8857421875,0.026123046875,0.0,-0.7934569716453552,-0.2136230319738388,66.66667175292969,22.0,1.0,WarmUp
-180.78091430664062,-232.81578063964844,-86.9035873413086,-210.7322540283203,-161.37960815429688,-201.07630920410156,-197.76824951171875,-130.98123168945312,-0.438232421875,0.884521484375,0.02490234375,-0.0915527269244194,-0.8544921278953552,-0.3356933295726776,66.66667175292969,23.0,1.0,WarmUp
-176.22116088867188,-226.8255157470703,-84.84722900390625,-204.56317138671875,-158.51858520507812,-195.9801025390625,-192.5826416015625,-128.03079223632812,-0.439208984375,0.884765625,0.026611328125,-0.0915527269244194,-0.8239745497703552,-0.3967284858226776,66.66667175292969,24.0,1.0,WarmUp
-172.28726196289062,-221.8187255859375,-82.8802719116211,-199.82460021972656,-155.74696350097656,-192.04620361328125,-188.29110717773438,-125.97444152832031,-0.439208984375,0.885009765625,0.0263671875,-0.0610351525247097,-0.8544921278953552,-0.3051757514476776,66.66667175292969,25.0,1.0,WarmUp
-168.62156677246094,-216.8119354248047,-81.00272369384766,-195.44366455078125,-153.5117950439453,-188.20169067382812,-184.35719299316406,-124.18629455566406,-0.439453125,0.88720703125,0.027587890625,0.03051757626235485,-0.9460448622703552,-0.3356933295726776,66.66667175292969,26.0,1.0,WarmUp
-165.31350708007812,-212.0733642578125,-79.66162109375,-190.79449462890625,-151.1872100830078,-184.08897399902344,-180.33387756347656,-122.48756408691406,-0.43798828125,0.88720703125,0.026611328125,0.03051757626235485,-0.8850097060203552,-0.3662109076976776,66.66667175292969,27.0,1.0,WarmUp
-162.18426513671875,-207.78182983398438,-77.87348175048828,-186.860595703125,-148.77322387695312,-180.33387756347656,-176.75759887695312,-120.78883361816406,-0.437744140625,0.885498046875,0.02587890625,0.0610351525247097,-0.7629393935203552,-0.2746581733226776,66.66667175292969,28.0,1.0,WarmUp
-159.2338409423828,-203.57969665527344,-76.62178039550781,-183.1949005126953,-146.71685791015625,-177.56227111816406,-173.36013793945312,-119.5371322631836,-0.440673828125,0.8837890625,0.027099609375,0.1220703050494194,-0.8239745497703552,-0.3356933295726776,66.66667175292969,29.0,1.0,WarmUp
-156.9092559814453,-199.9140167236328,-75.28067779541016,-179.97625732421875,-144.66049194335938,-174.8800506591797,-170.1414794921875,-118.64306640625,-0.439697265625,0.881591796875,0.0283203125,0.1525878757238388,-0.8544921278953552,-0.3356933295726776,66.66667175292969,30.0,1.0,WarmUp
-154.5846710205078,-196.33773803710938,-74.38661193847656,-177.115234375,-143.22998046875,-172.1084442138672,-167.7274932861328,-117.65959167480469,-0.439208984375,0.882568359375,0.027587890625,0.1220703050494194,-0.8239745497703552,-0.3662109076976776,66.66667175292969,31.0,1.0,WarmUp
-152.52830505371094,-193.11907958984375,-73.9395751953125,-174.164794921875,-141.4418487548828,-169.33682250976562,-165.31350708007812,-116.67610931396484,-0.43798828125,0.885986328125,0.02880859375,-0.03051757626235485,-0.7934569716453552,-0.4272460639476776,66.66667175292969,32.0,1.0,WarmUp
-150.47195434570312,-189.98983764648438,-72.95610046386719,-171.57199096679688,-139.83251953125,-166.6546173095703,-162.6313018798828,-115.4244155883789,-0.4384765625,0.8837890625,0.02978515625,-0.0610351525247097,-0.8544921278953552,-0.4577636420726776,66.66667175292969,33.0,1.0,WarmUp
-148.32618713378906,-187.39703369140625,-72.2408447265625,-169.068603515625,-138.4914093017578,-164.41943359375,-159.9490966796875,-114.6197509765625,-0.438720703125,0.883544921875,0.028076171875,-0.0610351525247097,-0.8544921278953552,-0.3051757514476776,66.66667175292969,34.0,1.0,WarmUp
-146.5380401611328,-184.71482849121094,-71.34677124023438,-166.6546173095703,-137.1503143310547,-162.45248413085938,-157.9821319580078,-113.99390411376953,-0.43798828125,0.884521484375,0.025634765625,0.03051757626235485,-0.8544921278953552,-0.1831054538488388,66.66667175292969,35.0,1.0,WarmUp
-144.9287109375,-181.76438903808594,-71.07855224609375,-164.41943359375,-135.8092041015625,-160.48553466796875,-156.19400024414062,-113.27864837646484,-0.439697265625,0.8857421875,0.024658203125,0.03051757626235485,-0.7629393935203552,-0.2746581733226776,66.66667175292969,36.0,1.0,WarmUp
-143.22998046875,-179.35040283203125,-70.54210662841797,-162.45248413085938,-134.736328125,-158.78680419921875,-154.5846710205078,-112.56339263916016,-0.442138671875,0.884033203125,0.024169921875,0.0915527269244194,-0.6408690810203552,-0.2441406100988388,66.66667175292969,37.0,1.0,WarmUp
-141.53125,-177.115234375,-70.00566864013672,-160.84315490722656,-133.3952178955078,-156.9092559814453,-152.8859405517578,-111.49050903320312,-0.441650390625,0.884033203125,0.026123046875,0.1525878757238388,-0.6713866591453552,-0.1831054538488388,66.66667175292969,38.0,1.0,WarmUp
-140.01133728027344,-174.8800506591797,-69.37982177734375,-159.2338409423828,-132.05410766601562,-154.85289001464844,-151.1872100830078,-110.77525329589844,-0.441162109375,0.8837890625,0.023193359375,0.03051757626235485,-0.7324218153953552,-0.2136230319738388,66.66667175292969,39.0,1.0,WarmUp
-138.4914093017578,-172.91310119628906,-68.93278503417969,-157.62451171875,-131.0706329345703,-153.6011962890625,-149.577880859375,-110.596435546875,-0.44091796875,0.8828125,0.023193359375,-0.0610351525247097,-0.8239745497703552,-0.2746581733226776,66.66667175292969,40.0,1.0,WarmUp
-137.32913208007812,-171.30377197265625,-68.75396728515625,-155.92578125,-129.81893920898438,-151.9024658203125,-148.14736938476562,-110.14939880371094,-0.441162109375,0.88330078125,0.0244140625,-0.0915527269244194,-0.9155272841453552,-0.3356933295726776,66.66667175292969,41.0,1.0,WarmUp
-135.98802185058594,-169.1580047607422,-68.75396728515625,-154.40585327148438,-128.83546447753906,-150.38253784179688,-146.98507690429688,-109.16592407226562,-0.44091796875,0.8828125,0.027099609375,-0.0610351525247097,-0.9155272841453552,-0.1831054538488388,66.66667175292969,42.0,1.0,WarmUp
-135.0939483642578,-167.7274932861328,-68.30693054199219,-153.06475830078125,-128.20960998535156,-149.13084411621094,-145.37574768066406,-108.80829620361328,-0.44091796875,0.883056640625,0.02685546875,-0.1831054538488388,-0.8850097060203552,-0.1220703050494194,66.66667175292969,43.0,1.0,WarmUp
-133.75283813476562,-165.93936157226562,-68.12812042236328,-151.72364807128906,-127.31554412841797,-147.879150390625,-144.12405395507812,-108.54007720947266,-0.440673828125,0.88525390625,0.026611328125,-0.1831054538488388,-0.8544921278953552,-0.03051757626235485,66.66667175292969,44.0,1.0,WarmUp
-132.85877990722656,-164.3300323486328,-68.03871154785156,-150.47195434570312,-126.51087951660156,-146.98507690429688,-142.96176147460938,-108.0930404663086,-0.440673828125,0.88330078125,0.028076171875,-0.0610351525247097,-0.7629393935203552,0.0,66.66667175292969,45.0,1.0,WarmUp
-131.60707092285156,-163.07833862304688,-67.85990142822266,-149.2202606201172,-125.70621490478516,-145.91220092773438,-141.79946899414062,-107.46719360351562,-0.44189453125,0.884521484375,0.0224609375,-0.03051757626235485,-0.7019042372703552,0.1831054538488388,66.66667175292969,46.0,1.0,WarmUp
-130.62359619140625,-161.55841064453125,-67.77049255371094,-148.05796813964844,-124.90155029296875,-144.66049194335938,-140.72659301757812,-106.93074798583984,-0.44140625,0.884033203125,0.02294921875,-0.0915527269244194,-0.8239745497703552,0.1831054538488388,66.66667175292969,47.0,1.0,WarmUp
-129.81893920898438,-160.12789916992188,-67.5916748046875,-147.1638946533203,-124.18629455566406,-143.58761596679688,-139.65370178222656,-106.5731201171875,-0.439697265625,0.88427734375,0.02490234375,-0.1831054538488388,-0.8850097060203552,0.1525878757238388,66.66667175292969,48.0,1.0,WarmUp
-128.92486572265625,-158.87620544433594,-67.50227355957031,-146.2698211669922,-123.47103881835938,-142.42532348632812,-138.7596435546875,-106.12609100341797,-0.43896484375,0.884765625,0.0244140625,-0.2746581733226776,-0.9765624403953552,0.1831054538488388,66.66667175292969,49.0,1.0,WarmUp
-128.2990264892578,-157.80332946777344,-67.23404693603516,-145.28634643554688,-123.02400970458984,-141.88888549804688,-137.5079345703125,-105.76846313476562,-0.437744140625,0.883544921875,0.027099609375,-0.3662109076976776,-1.0375975370407104,0.0610351525247097,66.66667175292969,50.0,1.0,WarmUp
-127.5837631225586,-156.55162048339844,-67.05523681640625,-144.481689453125,-122.48756408691406,-140.90541076660156,-136.88209533691406,-105.58964538574219,-0.438720703125,0.882568359375,0.027099609375,-0.2441406100988388,-0.9155272841453552,0.03051757626235485,66.66667175292969,51.0,1.0,WarmUp
-126.8685073852539,-155.74696350097656,-67.14464569091797,-143.58761596679688,-121.95112609863281,-139.9219207763672,-136.16683959960938,-105.23201751708984,-0.438720703125,0.884033203125,0.028564453125,-0.1831054538488388,-0.8544921278953552,0.0610351525247097,66.66667175292969,52.0,1.0,WarmUp
-125.97444152832031,-154.5846710205078,-66.87641906738281,-142.69354248046875,-121.05705261230469,-139.29608154296875,-135.63038635253906,-104.78498077392578,-0.43994140625,0.8828125,0.02978515625,-0.0915527269244194,-0.7934569716453552,0.03051757626235485,66.66667175292969,53.0,1.0,WarmUp
-125.52740478515625,-153.6905975341797,-66.51879119873047,-141.88888549804688,-120.61001586914062,-138.4914093017578,-134.8257293701172,-104.51676177978516,-0.440185546875,0.8837890625,0.027587890625,0.03051757626235485,-0.8239745497703552,0.2441406100988388,66.66667175292969,54.0,1.0,WarmUp
-124.81214904785156,-152.975341796875,-66.42938995361328,-141.35243225097656,-120.1629867553711,-137.77615356445312,-134.1104736328125,-104.33795166015625,-0.439453125,0.88525390625,0.024658203125,-0.0915527269244194,-0.8239745497703552,0.0610351525247097,66.66667175292969,55.0,1.0,WarmUp
-124.3651123046875,-152.08128356933594,-66.51879119873047,-140.4583740234375,-119.62654113769531,-137.1503143310547,-133.57403564453125,-104.0697250366211,-0.43994140625,0.88525390625,0.02734375,-0.1525878757238388,-0.7934569716453552,0.03051757626235485,66.66667175292969,56.0,1.0,WarmUp
-123.64985656738281,-151.00839233398438,-66.42938995361328,-139.65370178222656,-119.09010314941406,-136.61386108398438,-132.85877990722656,-103.89091491699219,-0.4404296875,0.88623046875,0.028564453125,-0.1525878757238388,-0.8239745497703552,0.03051757626235485,66.66667175292969,57.0,1.0,WarmUp
-123.47103881835938,-150.38253784179688,-66.33998107910156,-139.1172637939453,-118.64306640625,-136.25624084472656,-132.32232666015625,-103.62269592285156,-0.438232421875,0.884765625,0.028076171875,-0.0915527269244194,-0.8544921278953552,-0.03051757626235485,66.66667175292969,58.0,1.0,WarmUp
-122.75578308105469,-149.93551635742188,-66.33998107910156,-138.58082580566406,-118.01721954345703,-135.54098510742188,-131.785888671875,-103.1756591796875,-0.43896484375,0.8828125,0.02490234375,-0.03051757626235485,-0.8544921278953552,-0.1220703050494194,66.66667175292969,59.0,1.0,WarmUp
-122.12993621826172,-148.9520263671875,-66.16116333007812,-138.0443878173828,-117.65959167480469,-134.8257293701172,-130.89181518554688,-103.08625030517578,-0.439697265625,0.880859375,0.025634765625,-0.0915527269244194,-0.8850097060203552,-0.1831054538488388,66.66667175292969,60.0,1.0,WarmUp
-121.77230834960938,-148.14736938476562,-66.25057220458984,-137.59735107421875,-117.30196380615234,-134.55751037597656,-130.7130126953125,-102.90743255615234,-0.438232421875,0.88134765625,0.0263671875,0.0,-0.8850097060203552,-0.0915527269244194,66.66667175292969,61.0,1.0,WarmUp
-121.41468048095703,-147.70033264160156,-66.25057220458984,-137.23971557617188,-117.03373718261719,-133.93165588378906,-129.9977569580078,-102.81803131103516,-0.438232421875,0.88427734375,0.028564453125,0.0,-0.8544921278953552,-0.1220703050494194,66.66667175292969,62.0,1.0,WarmUp
-120.87824249267578,-147.34271240234375,-66.16116333007812,-136.70327758789062,-116.58670806884766,-133.3952178955078,-129.7295379638672,-102.63921356201172,-0.43896484375,0.8837890625,0.027099609375,0.0610351525247097,-0.8544921278953552,-0.1831054538488388,66.66667175292969,63.0,1.0,WarmUp
-120.341796875,-146.8956756591797,-66.07176208496094,-136.34564208984375,-116.1396713256836,-133.1269989013672,-129.28250122070312,-102.5498046875,-0.439453125,0.886962890625,0.02490234375,0.0915527269244194,-0.7629393935203552,-0.1525878757238388,66.66667175292969,64.0,1.0,WarmUp
-120.1629867553711,-146.180419921875,-65.8929443359375,-135.63038635253906,-115.87145233154297,-132.59056091308594,-128.7460479736328,-102.46040344238281,-0.4404296875,0.887451171875,0.025146484375,0.0610351525247097,-0.7629393935203552,-0.1220703050494194,66.66667175292969,65.0,1.0,WarmUp
-119.80535888671875,-145.73338317871094,-65.80353546142578,-135.36216735839844,-115.69263458251953,-132.14352416992188,-128.388427734375,-102.19217681884766,-0.43896484375,0.887451171875,0.023193359375,0.0610351525247097,-0.7324218153953552,-0.2136230319738388,66.66667175292969,66.0,1.0,WarmUp
-119.17950439453125,-145.1969451904297,-65.8929443359375,-134.91513061523438,-115.06678771972656,-131.785888671875,-127.76258087158203,-101.83454895019531,-0.4375,0.887939453125,0.02490234375,0.03051757626235485,-0.6713866591453552,-0.1525878757238388,66.66667175292969,67.0,1.0,WarmUp
-118.8218765258789,-144.74990844726562,-65.8929443359375,-134.64691162109375,-114.97737884521484,-131.60707092285156,-127.31554412841797,-101.6557388305664,-0.4375,0.88671875,0.023193359375,0.0915527269244194,-0.7629393935203552,-0.1220703050494194,66.66667175292969,68.0,1.0,WarmUp
-118.8218765258789,-144.30287170410156,-65.80353546142578,-134.28929138183594,-114.88796997070312,-131.24945068359375,-127.13672637939453,-101.38751983642578,-0.437744140625,0.88232421875,0.024658203125,-0.03051757626235485,-0.8239745497703552,-0.2136230319738388,66.66667175292969,69.0,1.0,WarmUp
-118.46424865722656,-143.7664337158203,-66.16116333007812,-134.1998748779297,-114.44093322753906,-130.7130126953125,-127.13672637939453,-101.56632995605469,-0.43798828125,0.88330078125,0.025390625,-0.2136230319738388,-0.8544921278953552,-0.1525878757238388,66.66667175292969,70.0,1.0,WarmUp
-118.19602966308594,-143.31939697265625,-65.8929443359375,-133.75283813476562,-114.08330535888672,-130.1765594482422,-126.689697265625,-101.38751983642578,-0.4384765625,0.881103515625,0.025146484375,-0.1525878757238388,-0.8544921278953552,-0.2136230319738388,66.66667175292969,71.0,1.0,WarmUp
-117.92781066894531,-143.1405792236328,-65.44590759277344,-133.3952178955078,-113.90449523925781,-129.9977569580078,-126.51087951660156,-101.29811096191406,-0.437744140625,0.88232421875,0.02685546875,-0.1525878757238388,-0.9460448622703552,-0.1525878757238388,66.66667175292969,72.0,1.0,WarmUp
-117.74899291992188,-142.78294372558594,-65.62472534179688,-132.94818115234375,-113.63627624511719,-129.81893920898438,-126.15325164794922,-101.20870208740234,-0.4375,0.884765625,0.028076171875,-0.0610351525247097,-0.8850097060203552,-0.03051757626235485,66.66667175292969,73.0,1.0,WarmUp
-117.39136505126953,-142.33592224121094,-65.80353546142578,-132.5011444091797,-113.18923950195312,-129.64012145996094,-125.8850326538086,-101.11929321289062,-0.43896484375,0.887451171875,0.028564453125,0.03051757626235485,-0.7934569716453552,-0.0610351525247097,66.66667175292969,74.0,1.0,WarmUp
-117.1231460571289,-141.88888549804688,-65.7141342163086,-132.14352416992188,-113.01042175292969,-129.3719024658203,-125.61680603027344,-100.94048309326172,-0.439208984375,0.889404296875,0.02685546875,-0.0610351525247097,-0.7019042372703552,0.0610351525247097,66.66667175292969,75.0,1.0,WarmUp
-116.85492706298828,-141.62066650390625,-65.8929443359375,-131.96470642089844,-113.18923950195312,-129.1036834716797,-125.2591781616211,-100.76166534423828,-0.437744140625,0.88623046875,0.025146484375,0.0,-0.5798339247703552,0.0915527269244194,66.66667175292969,76.0,1.0,WarmUp
-116.67610931396484,-141.1736297607422,-65.7141342163086,-131.96470642089844,-113.01042175292969,-128.83546447753906,-124.90155029296875,-100.6722640991211,-0.439453125,0.88623046875,0.02685546875,-0.03051757626235485,-0.7629393935203552,0.03051757626235485,66.66667175292969,77.0,1.0,WarmUp
-116.22908020019531,-140.72659301757812,-65.7141342163086,-131.51766967773438,-112.65279388427734,-128.388427734375,-125.08036804199219,-100.40403747558594,-0.438720703125,0.88525390625,0.025146484375,-0.0915527269244194,-0.9460448622703552,0.0,66.66667175292969,78.0,1.0,WarmUp
-116.40789031982422,-140.5477752685547,-65.53531646728516,-130.98123168945312,-112.47398376464844,-128.388427734375,-124.90155029296875,-100.40403747558594,-0.437744140625,0.884033203125,0.025146484375,-0.1831054538488388,-1.0375975370407104,-0.0915527269244194,66.66667175292969,79.0,1.0,WarmUp
-116.1396713256836,-140.63717651367188,-65.44590759277344,-130.98123168945312,-112.295166015625,-128.03079223632812,-124.3651123046875,-100.6722640991211,-0.437744140625,0.884033203125,0.02783203125,-0.1831054538488388,-0.9765624403953552,0.0610351525247097,66.66667175292969,80.0,1.0,WarmUp
-115.96085357666016,-140.27955627441406,-65.62472534179688,-131.0706329345703,-112.20576477050781,-127.94139099121094,-124.18629455566406,-100.40403747558594,-0.437744140625,0.883056640625,0.02685546875,-0.1525878757238388,-0.9765624403953552,0.0,66.66667175292969,81.0,1.0,WarmUp
-115.69263458251953,-139.83251953125,-65.17768859863281,-130.8024139404297,-112.02694702148438,-127.94139099121094,-124.18629455566406,-100.22522735595703,-0.43896484375,0.882568359375,0.03076171875,-0.1831054538488388,-0.8239745497703552,0.0610351525247097,66.66667175292969,82.0,1.0,WarmUp
-115.51382446289062,-139.83251953125,-65.35650634765625,-130.89181518554688,-112.02694702148438,-127.67317199707031,-123.73926544189453,-100.22522735595703,-0.4375,0.884033203125,0.028076171875,-0.0915527269244194,-0.7019042372703552,0.1831054538488388,66.66667175292969,83.0,1.0,WarmUp
-115.33500671386719,-139.65370178222656,-65.44590759277344,-130.44479370117188,-112.02694702148438,-127.31554412841797,-123.82866668701172,-100.13581848144531,-0.43701171875,0.884765625,0.027099609375,-0.0610351525247097,-0.6408690810203552,0.1220703050494194,66.66667175292969,84.0,1.0,WarmUp
-115.51382446289062,-139.56430053710938,-65.44590759277344,-130.1765594482422,-112.02694702148438,-127.04732513427734,-123.82866668701172,-99.9570083618164,-0.436279296875,0.885009765625,0.025146484375,-0.0915527269244194,-0.7324218153953552,0.1525878757238388,66.66667175292969,85.0,1.0,WarmUp
-115.24559783935547,-139.1172637939453,-65.26709747314453,-129.81893920898438,-111.49050903320312,-126.95791625976562,-123.47103881835938,-99.9570083618164,-0.436279296875,0.886962890625,0.024658203125,-0.0915527269244194,-0.8239745497703552,0.0610351525247097,66.66667175292969,86.0,1.0,WarmUp
-114.97737884521484,-138.93844604492188,-65.44590759277344,-129.90834045410156,-111.4011001586914,-126.77909851074219,-123.11341094970703,-99.77819061279297,-0.436767578125,0.885009765625,0.0244140625,0.0,-0.9765624403953552,0.0610351525247097,66.66667175292969,87.0,1.0,WarmUp
-114.97737884521484,-138.67022705078125,-65.17768859863281,-129.64012145996094,-111.04347229003906,-126.60028839111328,-122.93460083007812,-99.59938049316406,-0.436767578125,0.884521484375,0.0263671875,-0.0610351525247097,-0.9155272841453552,0.0610351525247097,66.66667175292969,88.0,1.0,WarmUp
-114.97737884521484,-138.4914093017578,-64.9988784790039,-129.28250122070312,-111.04347229003906,-126.42147064208984,-123.11341094970703,-99.59938049316406,-0.437744140625,0.883544921875,0.026611328125,-0.1220703050494194,-0.7934569716453552,-0.1831054538488388,66.66667175292969,89.0,1.0,WarmUp
-114.88796997070312,-138.31260681152344,-65.26709747314453,-129.1036834716797,-110.95406341552734,-126.24266052246094,-122.8451919555664,-99.77819061279297,-0.435302734375,0.88232421875,0.025390625,-0.1220703050494194,-0.8239745497703552,-0.3356933295726776,66.66667175292969,90.0,1.0,WarmUp
-114.53034210205078,-137.95497131347656,-65.35650634765625,-129.28250122070312,-110.77525329589844,-126.24266052246094,-122.57697296142578,-99.68878173828125,-0.4365234375,0.882568359375,0.02587890625,-0.0610351525247097,-0.9155272841453552,-0.2441406100988388,66.66667175292969,91.0,1.0,WarmUp
-114.35153198242188,-138.0443878173828,-65.26709747314453,-129.1036834716797,-110.68584442138672,-126.15325164794922,-122.57697296142578,-99.59938049316406,-0.43603515625,0.884521484375,0.027587890625,0.0,-0.7629393935203552,-0.2746581733226776,66.66667175292969,92.0,1.0,WarmUp
-114.26212310791016,-137.86557006835938,-65.35650634765625,-128.92486572265625,-110.77525329589844,-126.0638427734375,-122.39815521240234,-99.42056274414062,-0.43701171875,0.8857421875,0.0244140625,0.0,-0.7019042372703552,-0.3051757514476776,66.66667175292969,93.0,1.0,WarmUp
-114.17271423339844,-137.68675231933594,-65.35650634765625,-128.7460479736328,-110.86465454101562,-125.97444152832031,-122.48756408691406,-99.59938049316406,-0.4375,0.886474609375,0.025634765625,0.03051757626235485,-0.6408690810203552,-0.3051757514476776,66.66667175292969,94.0,1.0,WarmUp
-114.17271423339844,-137.68675231933594,-65.26709747314453,-128.7460479736328,-110.596435546875,-125.70621490478516,-122.21934509277344,-99.42056274414062,-0.4384765625,0.888427734375,0.02392578125,0.0915527269244194,-0.6713866591453552,-0.3356933295726776,66.66667175292969,95.0,1.0,WarmUp
-113.99390411376953,-137.4185333251953,-65.35650634765625,-128.56724548339844,-110.4176254272461,-125.43799591064453,-122.21934509277344,-99.24175262451172,-0.436767578125,0.88671875,0.0224609375,0.03051757626235485,-0.7934569716453552,-0.3051757514476776,66.66667175292969,96.0,1.0,WarmUp
-113.72567749023438,-137.1503143310547,-65.44590759277344,-128.388427734375,-110.4176254272461,-125.70621490478516,-122.21934509277344,-99.3311538696289,-0.436767578125,0.88525390625,0.024658203125,0.0610351525247097,-0.8239745497703552,-0.3051757514476776,66.66667175292969,97.0,1.0,WarmUp
-113.72567749023438,-137.1503143310547,-65.35650634765625,-128.2990264892578,-110.05999755859375,-125.52740478515625,-121.95112609863281,-99.24175262451172,-0.435791015625,0.883056640625,0.0234375,-0.03051757626235485,-0.8850097060203552,-0.3356933295726776,66.66667175292969,98.0,1.0,WarmUp
-113.54686737060547,-136.97149658203125,-65.62472534179688,-128.2990264892578,-109.88117980957031,-125.34858703613281,-121.77230834960938,-99.42056274414062,-0.43701171875,0.883544921875,0.026123046875,-0.03051757626235485,-0.8544921278953552,-0.3051757514476776,66.66667175292969,99.0,1.0,WarmUp
-113.63627624511719,-136.70327758789062,-65.62472534179688,-128.20960998535156,-110.05999755859375,-125.2591781616211,-121.77230834960938,-99.3311538696289,-0.438720703125,0.882568359375,0.02783203125,-0.0610351525247097,-0.7324218153953552,-0.4272460639476776,66.66667175292969,100.0,1.0,WarmUp
-113.54686737060547,-136.88209533691406,-65.53531646728516,-128.20960998535156,-109.97058868408203,-125.08036804199219,-121.50408935546875,-99.06293487548828,-0.4384765625,0.884521484375,0.02734375,-0.03051757626235485,-0.7934569716453552,-0.4272460639476776,66.66667175292969,101.0,1.0,WarmUp
-113.63627624511719,-136.61386108398438,-65.44590759277344,-128.2990264892578,-109.88117980957031,-124.81214904785156,-121.59349822998047,-99.15234375,-0.43896484375,0.884033203125,0.027099609375,0.0,-0.8239745497703552,-0.2746581733226776,66.66667175292969,102.0,1.0,WarmUp
-113.36804962158203,-136.61386108398438,-65.44590759277344,-128.03079223632812,-109.7917709350586,-124.90155029296875,-121.50408935546875,-99.3311538696289,-0.439208984375,0.8837890625,0.029296875,0.0915527269244194,-0.8239745497703552,-0.3356933295726776,66.66667175292969,103.0,1.0,WarmUp
-113.27864837646484,-136.5244598388672,-65.35650634765625,-128.03079223632812,-109.7023696899414,-125.2591781616211,-121.23587036132812,-98.97352600097656,-0.43896484375,0.884033203125,0.0283203125,0.0610351525247097,-0.7629393935203552,-0.3967284858226776,66.66667175292969,104.0,1.0,WarmUp
-113.18923950195312,-136.43505859375,-65.0882797241211,-127.76258087158203,-109.52355194091797,-125.08036804199219,-121.23587036132812,-98.97352600097656,-0.438232421875,0.884521484375,0.0263671875,0.03051757626235485,-0.7934569716453552,-0.4272460639476776,66.66667175292969,105.0,1.0,WarmUp
-113.18923950195312,-136.70327758789062,-65.17768859863281,-127.76258087158203,-109.7023696899414,-124.81214904785156,-121.05705261230469,-98.88412475585938,-0.440185546875,0.885498046875,0.026611328125,0.0610351525247097,-0.7629393935203552,-0.4577636420726776,66.66667175292969,106.0,1.0,WarmUp
-113.18923950195312,-136.43505859375,-65.35650634765625,-127.5837631225586,-109.7023696899414,-124.72274017333984,-121.23587036132812,-98.88412475585938,-0.4375,0.885009765625,0.026611328125,-0.03051757626235485,-0.8239745497703552,-0.4272460639476776,66.66667175292969,107.0,1.0,WarmUp
-113.01042175292969,-136.07742309570312,-65.35650634765625,-127.67317199707031,-109.43414306640625,-124.3651123046875,-121.23587036132812,-98.88412475585938,-0.4375,0.883056640625,0.02880859375,0.0,-0.7629393935203552,-0.4272460639476776,66.66667175292969,108.0,1.0,WarmUp
-112.83161163330078,-136.07742309570312,-65.35650634765625,-127.5837631225586,-109.34474182128906,-124.27570343017578,-121.1464614868164,-98.88412475585938,-0.43994140625,0.883056640625,0.028076171875,0.0610351525247097,-0.7324218153953552,-0.5493163466453552,66.66667175292969,109.0,1.0,WarmUp
-112.74220275878906,-135.98802185058594,-65.35650634765625,-127.13672637939453,-109.43414306640625,-124.3651123046875,-121.1464614868164,-98.79471588134766,-0.440673828125,0.8828125,0.02490234375,0.2136230319738388,-0.6713866591453552,-0.5493163466453552,66.66667175292969,110.0,1.0,WarmUp
-113.01042175292969,-135.98802185058594,-65.26709747314453,-127.31554412841797,-109.43414306640625,-124.3651123046875,-120.87824249267578,-98.79471588134766,-0.440673828125,0.882080078125,0.025146484375,0.1831054538488388,-0.6713866591453552,-0.4577636420726776,66.66667175292969,111.0,1.0,WarmUp
-112.9210205078125,-135.98802185058594,-65.44590759277344,-127.22613525390625,-109.43414306640625,-124.3651123046875,-120.78883361816406,-99.06293487548828,-0.440185546875,0.8828125,0.02685546875,0.1831054538488388,-0.7324218153953552,-0.4272460639476776,66.66667175292969,112.0,1.0,WarmUp
-112.83161163330078,-135.7198028564453,-65.35650634765625,-127.13672637939453,-109.34474182128906,-124.3651123046875,-120.87824249267578,-99.06293487548828,-0.441650390625,0.885498046875,0.02685546875,0.03051757626235485,-0.7019042372703552,-0.4272460639476776,66.66667175292969,113.0,1.0,WarmUp
-112.74220275878906,-135.63038635253906,-65.17768859863281,-127.04732513427734,-109.25533294677734,-124.18629455566406,-120.87824249267578,-98.70530700683594,-0.441650390625,0.88330078125,0.0244140625,-0.0610351525247097,-0.8239745497703552,-0.3051757514476776,66.66667175292969,114.0,1.0,WarmUp
-112.65279388427734,-135.8092041015625,-65.0882797241211,-127.13672637939453,-109.16592407226562,-124.09689331054688,-120.87824249267578,-98.70530700683594,-0.44091796875,0.884033203125,0.025146484375,-0.0610351525247097,-0.8850097060203552,-0.2746581733226776,66.66667175292969,115.0,1.0,WarmUp
-112.74220275878906,-135.54098510742188,-65.17768859863281,-127.13672637939453,-109.25533294677734,-124.09689331054688,-120.61001586914062,-98.70530700683594,-0.441162109375,0.882568359375,0.025390625,-0.1220703050494194,-0.8850097060203552,-0.1831054538488388,66.66667175292969,116.0,1.0,WarmUp
-112.74220275878906,-135.54098510742188,-65.35650634765625,-127.13672637939453,-109.25533294677734,-124.00748443603516,-120.52061462402344,-98.70530700683594,-0.44091796875,0.881591796875,0.02490234375,-0.0610351525247097,-0.7934569716453552,-0.0915527269244194,66.66667175292969,117.0,1.0,WarmUp
-112.56339263916016,-135.63038635253906,-65.17768859863281,-126.8685073852539,-109.16592407226562,-124.00748443603516,-120.61001586914062,-98.88412475585938,-0.442138671875,0.8798828125,0.02880859375,-0.0610351525247097,-0.7629393935203552,-0.0610351525247097,66.66667175292969,118.0,1.0,WarmUp
-112.74220275878906,-135.36216735839844,-64.90946960449219,-126.95791625976562,-109.16592407226562,-124.00748443603516,-120.52061462402344,-98.70530700683594,-0.441162109375,0.8818359375,0.02783203125,-0.1831054538488388,-0.8239745497703552,0.03051757626235485,66.66667175292969,119.0,1.0,WarmUp
-112.74220275878906,-135.36216735839844,-65.17768859863281,-127.04732513427734,-108.98711395263672,-123.91807556152344,-120.52061462402344,-98.70530700683594,-0.43994140625,0.8828125,0.026123046875,-0.1525878757238388,-0.8239745497703552,0.1220703050494194,66.66667175292969,120.0,1.0,WarmUp
-112.38457489013672,-135.27276611328125,-64.9988784790039,-127.13672637939453,-108.80829620361328,-123.91807556152344,-120.61001586914062,-98.52649688720703,-0.440185546875,0.88427734375,0.026611328125,-0.1525878757238388,-0.9155272841453552,0.1525878757238388,66.66667175292969,121.0,1.0,WarmUp
-112.47398376464844,-135.36216735839844,-65.17768859863281,-127.04732513427734,-108.897705078125,-124.00748443603516,-120.52061462402344,-98.43708801269531,-0.438232421875,0.885986328125,0.027099609375,-0.1525878757238388,-0.7934569716453552,0.1220703050494194,66.66667175292969,122.0,1.0,WarmUp
-112.38457489013672,-135.183349609375,-65.17768859863281,-126.8685073852539,-108.98711395263672,-123.91807556152344,-120.43120574951172,-98.61589813232422,-0.439453125,0.885986328125,0.028564453125,-0.1525878757238388,-0.8239745497703552,0.0915527269244194,66.66667175292969,123.0,1.0,WarmUp
-112.38457489013672,-135.183349609375,-65.17768859863281,-127.04732513427734,-108.897705078125,-123.82866668701172,-120.43120574951172,-98.52649688720703,-0.438232421875,0.886474609375,0.027099609375,-0.1831054538488388,-0.8239745497703552,0.1831054538488388,66.66667175292969,124.0,1.0,WarmUp
-112.47398376464844,-135.183349609375,-65.17768859863281,-126.77909851074219,-108.897705078125,-124.00748443603516,-120.25238800048828,-98.70530700683594,-0.438720703125,0.887451171875,0.0244140625,-0.0915527269244194,-0.7629393935203552,0.2136230319738388,66.66667175292969,125.0,1.0,WarmUp
-112.38457489013672,-135.36216735839844,-65.35650634765625,-126.689697265625,-108.80829620361328,-123.91807556152344,-120.1629867553711,-98.70530700683594,-0.439697265625,0.887451171875,0.024169921875,-0.1220703050494194,-0.8239745497703552,0.2441406100988388,66.66667175292969,126.0,1.0,WarmUp
-112.56339263916016,-135.27276611328125,-64.90946960449219,-126.689697265625,-108.80829620361328,-123.73926544189453,-120.1629867553711,-98.43708801269531,-0.437744140625,0.885986328125,0.023681640625,-0.1525878757238388,-0.8239745497703552,0.2441406100988388,66.66667175292969,127.0,1.0,WarmUp
-112.295166015625,-135.0939483642578,-64.9988784790039,-126.60028839111328,-108.71888732910156,-123.73926544189453,-120.341796875,-98.43708801269531,-0.43701171875,0.88525390625,0.026611328125,-0.1220703050494194,-0.9155272841453552,0.2136230319738388,66.66667175292969,128.0,1.0,WarmUp
-112.38457489013672,-135.183349609375,-65.0882797241211,-126.689697265625,-108.80829620361328,-123.5604476928711,-120.1629867553711,-98.43708801269531,-0.436767578125,0.8828125,0.027099609375,-0.03051757626235485,-0.7629393935203552,0.3662109076976776,66.66667175292969,129.0,1.0,WarmUp
-112.295166015625,-135.183349609375,-65.17768859863281,-126.51087951660156,-108.80829620361328,-123.47103881835938,-119.98416900634766,-98.3476791381836,-0.4375,0.883544921875,0.024658203125,-0.0915527269244194,-0.7019042372703552,0.3967284858226776,66.66667175292969,130.0,1.0,WarmUp
-112.20576477050781,-135.0939483642578,-65.17768859863281,-126.51087951660156,-108.62948608398438,-123.73926544189453,-120.07357788085938,-98.25827026367188,-0.4365234375,0.884765625,0.0244140625,-0.03051757626235485,-0.7934569716453552,0.3356933295726776,66.66667175292969,131.0,1.0,WarmUp
-112.1163558959961,-134.91513061523438,-65.17768859863281,-126.42147064208984,-108.71888732910156,-123.82866668701172,-120.1629867553711,-98.43708801269531,-0.436279296875,0.88671875,0.02294921875,-0.1525878757238388,-0.8239745497703552,0.3662109076976776,66.66667175292969,132.0,1.0,WarmUp
-112.1163558959961,-135.0939483642578,-64.9988784790039,-126.42147064208984,-108.62948608398438,-123.73926544189453,-119.98416900634766,-98.43708801269531,-0.435546875,0.886962890625,0.025390625,-0.1831054538488388,-0.8239745497703552,0.3356933295726776,66.66667175292969,133.0,1.0,WarmUp
-112.20576477050781,-135.00454711914062,-64.9988784790039,-126.24266052246094,-108.71888732910156,-123.47103881835938,-119.80535888671875,-98.3476791381836,-0.437255859375,0.88671875,0.02294921875,-0.1831054538488388,-0.8850097060203552,0.3051757514476776,66.66667175292969,134.0,1.0,WarmUp
-112.02694702148438,-134.91513061523438,-65.17768859863281,-126.42147064208984,-108.71888732910156,-123.5604476928711,-119.71595001220703,-98.52649688720703,-0.435546875,0.886474609375,0.024658203125,-0.2136230319738388,-0.9460448622703552,0.3051757514476776,66.66667175292969,135.0,1.0,WarmUp
-112.02694702148438,-135.0939483642578,-65.17768859863281,-126.24266052246094,-108.62948608398438,-123.73926544189453,-119.98416900634766,-98.70530700683594,-0.435302734375,0.8876953125,0.0244140625,-0.1831054538488388,-0.8850097060203552,0.4272460639476776,66.66667175292969,136.0,1.0,WarmUp
-112.295166015625,-135.00454711914062,-65.0882797241211,-126.24266052246094,-108.54007720947266,-123.5604476928711,-119.98416900634766,-98.61589813232422,-0.435302734375,0.888427734375,0.0234375,-0.2441406100988388,-0.7934569716453552,0.3967284858226776,66.66667175292969,137.0,1.0,WarmUp
-112.295166015625,-134.8257293701172,-64.90946960449219,-126.42147064208984,-108.62948608398438,-123.29222869873047,-119.89476013183594,-98.3476791381836,-0.435302734375,0.886962890625,0.021240234375,-0.2136230319738388,-0.8239745497703552,0.3662109076976776,66.66667175292969,138.0,1.0,WarmUp
-112.1163558959961,-134.55751037597656,-64.9988784790039,-126.51087951660156,-108.62948608398438,-123.47103881835938,-120.07357788085938,-98.43708801269531,-0.43603515625,0.88671875,0.02294921875,-0.2136230319738388,-0.8544921278953552,0.3051757514476776,66.66667175292969,139.0,1.0,WarmUp
-111.93753814697266,-134.8257293701172,-65.17768859863281,-126.42147064208984,-108.62948608398438,-123.47103881835938,-119.98416900634766,-98.43708801269531,-0.435791015625,0.88427734375,0.024658203125,-0.3356933295726776,-0.9155272841453552,0.2441406100988388,66.66667175292969,140.0,1.0,WarmUp
-111.93753814697266,-134.736328125,-65.17768859863281,-126.33206939697266,-108.71888732910156,-123.47103881835938,-119.98416900634766,-98.43708801269531,-0.43603515625,0.884033203125,0.0263671875,-0.3662109076976776,-0.9765624403953552,0.0915527269244194,66.66667175292969,141.0,1.0,WarmUp
-111.84813690185547,-134.736328125,-64.9988784790039,-126.51087951660156,-108.62948608398438,-123.5604476928711,-119.98416900634766,-98.43708801269531,-0.43505859375,0.881591796875,0.02880859375,-0.3356933295726776,-1.0375975370407104,-0.0610351525247097,66.66667175292969,142.0,1.0,WarmUp
-111.93753814697266,-134.736328125,-64.9988784790039,-126.42147064208984,-108.62948608398438,-123.38163757324219,-119.98416900634766,-98.43708801269531,-0.43505859375,0.882080078125,0.02734375,-0.1525878757238388,-0.8850097060203552,-0.1525878757238388,66.66667175292969,143.0,1.0,WarmUp
-112.1163558959961,-134.8257293701172,-65.17768859863281,-126.42147064208984,-108.80829620361328,-123.29222869873047,-119.80535888671875,-98.43708801269531,-0.436767578125,0.882568359375,0.029541015625,-0.0915527269244194,-0.7629393935203552,-0.2136230319738388,66.66667175292969,144.0,1.0,WarmUp
-112.02694702148438,-134.64691162109375,-65.35650634765625,-126.42147064208984,-108.71888732910156,-123.5604476928711,-119.71595001220703,-98.16886901855469,-0.435546875,0.8828125,0.029541015625,-0.03051757626235485,-0.7019042372703552,-0.4577636420726776,66.66667175292969,145.0,1.0,WarmUp
-111.84813690185547,-134.64691162109375,-65.26709747314453,-126.42147064208984,-108.45066833496094,-123.29222869873047,-119.98416900634766,-98.43708801269531,-0.4375,0.8837890625,0.027099609375,0.1220703050494194,-0.5187987685203552,-0.5798339247703552,66.66667175292969,146.0,1.0,WarmUp
-111.93753814697266,-134.64691162109375,-65.0882797241211,-126.15325164794922,-108.54007720947266,-123.38163757324219,-119.89476013183594,-98.25827026367188,-0.43701171875,0.88623046875,0.026123046875,0.1525878757238388,-0.5798339247703552,-0.6408690810203552,66.66667175292969,147.0,1.0,WarmUp
-111.93753814697266,-134.64691162109375,-65.17768859863281,-126.15325164794922,-108.45066833496094,-123.20281982421875,-119.80535888671875,-98.25827026367188,-0.4365234375,0.88525390625,0.027587890625,0.1525878757238388,-0.5798339247703552,-0.7629393935203552,66.66667175292969,148.0,1.0,WarmUp
-111.84813690185547,-134.736328125,-65.0882797241211,-126.42147064208984,-108.71888732910156,-123.20281982421875,-119.71595001220703,-98.52649688720703,-0.435302734375,0.88720703125,0.029052734375,0.0610351525247097,-0.7019042372703552,-0.8544921278953552,66.66667175292969,149.0,1.0,WarmUp
-111.84813690185547,-134.64691162109375,-65.17768859863281,-126.15325164794922,-108.54007720947266,-123.29222869873047,-119.89476013183594,-98.52649688720703,-0.438232421875,0.885986328125,0.0283203125,0.1525878757238388,-0.5798339247703552,-0.9155272841453552,66.66667175292969,150.0,1.0,WarmUp
-111.93753814697266,-134.55751037597656,-65.0882797241211,-126.15325164794922,-108.54007720947266,-123.29222869873047,-119.62654113769531,-98.3476791381836,-0.4375,0.885498046875,0.02587890625,0.2746581733226776,-0.6103515028953552,-1.0070799589157104,66.66667175292969,151.0,1.0,WarmUp
-112.1163558959961,-134.4680938720703,-65.26709747314453,-125.97444152832031,-108.62948608398438,-123.11341094970703,-119.5371322631836,-98.43708801269531,-0.438720703125,0.88232421875,0.026123046875,0.3356933295726776,-0.6713866591453552,-0.9460448622703552,66.66667175292969,152.0,1.0,WarmUp
-111.93753814697266,-134.37869262695312,-65.35650634765625,-126.0638427734375,-108.54007720947266,-123.29222869873047,-119.71595001220703,-98.3476791381836,-0.437255859375,0.8818359375,0.026123046875,0.2441406100988388,-0.6103515028953552,-0.7934569716453552,66.66667175292969,153.0,1.0,WarmUp
-111.93753814697266,-134.55751037597656,-65.17768859863281,-126.15325164794922,-108.36125946044922,-123.38163757324219,-119.80535888671875,-98.25827026367188,-0.437744140625,0.8828125,0.02587890625,0.2136230319738388,-0.6408690810203552,-0.8239745497703552,66.66667175292969,154.0,1.0,WarmUp
-111.84813690185547,-134.4680938720703,-64.9988784790039,-126.15325164794922,-108.18244934082031,-123.29222869873047,-119.62654113769531,-98.3476791381836,-0.438720703125,0.885009765625,0.027587890625,0.2136230319738388,-0.7019042372703552,-0.7629393935203552,66.66667175292969,155.0,1.0,WarmUp
-111.66931915283203,-134.4680938720703,-65.26709747314453,-126.15325164794922,-108.27185821533203,-123.20281982421875,-119.80535888671875,-98.43708801269531,-0.439697265625,0.884521484375,0.025634765625,0.1220703050494194,-0.6713866591453552,-0.6408690810203552,66.66667175292969,156.0,1.0,WarmUp
-111.84813690185547,-134.28929138183594,-65.17768859863281,-126.0638427734375,-108.27185821533203,-123.29222869873047,-119.4477310180664,-98.16886901855469,-0.4404296875,0.883544921875,0.024658203125,0.0610351525247097,-0.7324218153953552,-0.4882812201976776,66.66667175292969,157.0,1.0,WarmUp
-111.75872802734375,-134.28929138183594,-65.26709747314453,-126.15325164794922,-108.36125946044922,-123.20281982421875,-119.4477310180664,-98.25827026367188,-0.44140625,0.884033203125,0.027587890625,0.0610351525247097,-0.7629393935203552,-0.3662109076976776,66.66667175292969,158.0,1.0,WarmUp
-112.02694702148438,-134.37869262695312,-65.35650634765625,-126.0638427734375,-108.27185821533203,-123.11341094970703,-119.71595001220703,-98.25827026367188,-0.44140625,0.8837890625,0.026123046875,-0.03051757626235485,-0.7934569716453552,-0.2441406100988388,66.66667175292969,159.0,1.0,WarmUp
-111.84813690185547,-134.37869262695312,-65.17768859863281,-125.97444152832031,-108.27185821533203,-123.11341094970703,-119.4477310180664,-98.3476791381836,-0.441650390625,0.88330078125,0.026123046875,0.0,-0.6408690810203552,-0.1831054538488388,66.66667175292969,160.0,1.0,WarmUp
-111.66931915283203,-134.4680938720703,-64.9988784790039,-125.97444152832031,-108.36125946044922,-123.11341094970703,-119.5371322631836,-98.25827026367188,-0.443115234375,0.8837890625,0.025634765625,0.03051757626235485,-0.7324218153953552,-0.03051757626235485,66.66667175292969,161.0,1.0,WarmUp
-111.66931915283203,-134.4680938720703,-64.9988784790039,-125.79562377929688,-108.27185821533203,-123.02400970458984,-119.5371322631836,-98.16886901855469,-0.44189453125,0.885498046875,0.0234375,0.03051757626235485,-0.8239745497703552,-0.03051757626235485,66.66667175292969,162.0,1.0,WarmUp
-111.66931915283203,-134.37869262695312,-64.9988784790039,-125.8850326538086,-108.27185821533203,-123.02400970458984,-119.5371322631836,-98.25827026367188,-0.44091796875,0.88671875,0.02392578125,-0.0610351525247097,-0.8239745497703552,0.0915527269244194,66.66667175292969,163.0,1.0,WarmUp
-111.75872802734375,-134.28929138183594,-64.82006072998047,-126.15325164794922,-108.0930404663086,-123.11341094970703,-119.71595001220703,-98.25827026367188,-0.441650390625,0.885498046875,0.025634765625,-0.1831054538488388,-0.8850097060203552,0.0915527269244194,66.66667175292969,164.0,1.0,WarmUp
-111.84813690185547,-134.1998748779297,-64.55184173583984,-126.0638427734375,-108.18244934082031,-123.11341094970703,-119.71595001220703,-98.25827026367188,-0.440673828125,0.882568359375,0.025634765625,-0.2441406100988388,-0.8850097060203552,0.1220703050494194,66.66667175292969,165.0,1.0,WarmUp
-111.84813690185547,-134.1998748779297,-64.55184173583984,-126.0638427734375,-108.18244934082031,-123.11341094970703,-119.4477310180664,-98.52649688720703,-0.440673828125,0.8837890625,0.027099609375,-0.3967284858226776,-0.9155272841453552,0.0610351525247097,66.66667175292969,166.0,1.0,WarmUp
-111.75872802734375,-134.37869262695312,-64.46243286132812,-125.97444152832031,-108.18244934082031,-123.11341094970703,-119.5371322631836,-98.52649688720703,-0.4404296875,0.8818359375,0.0263671875,-0.4272460639476776,-1.0070799589157104,0.0915527269244194,66.66667175292969,167.0,1.0,WarmUp
-111.66931915283203,-134.28929138183594,-64.10480499267578,-125.79562377929688,-108.27185821533203,-123.20281982421875,-119.71595001220703,-98.52649688720703,-0.44091796875,0.883544921875,0.029296875,-0.2746581733226776,-1.0375975370407104,0.0915527269244194,66.66667175292969,168.0,1.0,WarmUp
-111.66931915283203,-134.28929138183594,-64.01539611816406,-125.8850326538086,-107.82482147216797,-123.11341094970703,-119.5371322631836,-98.25827026367188,-0.439208984375,0.882080078125,0.02880859375,-0.2136230319738388,-0.9765624403953552,0.1220703050494194,66.66667175292969,169.0,1.0,WarmUp
-111.84813690185547,-134.4680938720703,-63.836585998535156,-125.97444152832031,-107.91423034667969,-123.02400970458984,-119.5371322631836,-98.25827026367188,-0.439453125,0.8818359375,0.031982421875,-0.0915527269244194,-0.7934569716453552,0.0915527269244194,66.66667175292969,170.0,1.0,WarmUp
-111.84813690185547,-134.1998748779297,-63.657772064208984,-125.79562377929688,-107.64600372314453,-123.02400970458984,-119.5371322631836,-98.3476791381836,-0.441162109375,0.8828125,0.029541015625,-0.03051757626235485,-0.7019042372703552,-0.0610351525247097,66.66667175292969,171.0,1.0,WarmUp
-111.84813690185547,-134.37869262695312,-63.568363189697266,-125.97444152832031,-107.64600372314453,-122.93460083007812,-119.71595001220703,-97.99005126953125,-0.4423828125,0.880859375,0.0302734375,-0.03051757626235485,-0.7019042372703552,-0.2136230319738388,66.66667175292969,172.0,1.0,WarmUp
-111.66931915283203,-134.37869262695312,-63.568363189697266,-125.97444152832031,-107.82482147216797,-123.11341094970703,-119.35832214355469,-97.90064239501953,-0.441650390625,0.883544921875,0.0302734375,-0.0915527269244194,-0.7019042372703552,-0.1831054538488388,66.66667175292969,173.0,1.0,WarmUp
-111.66931915283203,-134.64691162109375,-63.12133026123047,-125.8850326538086,-107.82482147216797,-123.11341094970703,-119.4477310180664,-98.07946014404297,-0.44140625,0.88427734375,0.02978515625,-0.0915527269244194,-0.8850097060203552,-0.2746581733226776,66.66667175292969,174.0,1.0,WarmUp
-111.57991027832031,-134.64691162109375,-63.03192138671875,-126.15325164794922,-107.73541259765625,-123.20281982421875,-119.4477310180664,-97.72183227539062,-0.44140625,0.882568359375,0.02880859375,-0.03051757626235485,-0.8850097060203552,-0.3662109076976776,66.66667175292969,175.0,1.0,WarmUp
-111.66931915283203,-134.64691162109375,-63.03192138671875,-125.8850326538086,-107.64600372314453,-122.8451919555664,-119.4477310180664,-97.6324234008789,-0.4404296875,0.8837890625,0.028564453125,-0.0610351525247097,-0.7324218153953552,-0.2441406100988388,66.66667175292969,176.0,1.0,WarmUp
-111.66931915283203,-134.64691162109375,-62.674293518066406,-125.79562377929688,-107.64600372314453,-122.75578308105469,-119.4477310180664,-97.6324234008789,-0.441162109375,0.885009765625,0.031494140625,0.0,-0.7324218153953552,-0.3051757514476776,66.66667175292969,177.0,1.0,WarmUp
-111.75872802734375,-134.55751037597656,-62.58488845825195,-125.70621490478516,-107.3777847290039,-122.93460083007812,-119.26891326904297,-97.36420440673828,-0.441162109375,0.884033203125,0.029052734375,0.0915527269244194,-0.7019042372703552,-0.2746581733226776,66.66667175292969,178.0,1.0,WarmUp
-111.84813690185547,-134.736328125,-62.22726058959961,-125.79562377929688,-107.46719360351562,-123.29222869873047,-119.35832214355469,-97.09598541259766,-0.43994140625,0.883544921875,0.0302734375,0.03051757626235485,-0.7019042372703552,-0.2136230319738388,66.66667175292969,179.0,1.0,WarmUp
-111.66931915283203,-134.736328125,-61.869632720947266,-126.0638427734375,-107.46719360351562,-123.02400970458984,-119.26891326904297,-97.00657653808594,-0.441650390625,0.883544921875,0.03076171875,0.03051757626235485,-0.7629393935203552,-0.1831054538488388,66.66667175292969,180.0,1.0,WarmUp
-111.66931915283203,-134.91513061523438,-61.601409912109375,-125.97444152832031,-107.46719360351562,-123.02400970458984,-119.09010314941406,-96.6489486694336,-0.4404296875,0.881591796875,0.029052734375,-0.0915527269244194,-0.7934569716453552,-0.1831054538488388,66.66667175292969,181.0,1.0,WarmUp
-111.84813690185547,-134.736328125,-61.4225959777832,-125.79562377929688,-107.46719360351562,-122.8451919555664,-119.26891326904297,-96.6489486694336,-0.442626953125,0.880859375,0.029296875,-0.03051757626235485,-0.8544921278953552,-0.1831054538488388,66.66667175292969,182.0,1.0,WarmUp
-111.49050903320312,-134.736328125,-61.15437698364258,-125.8850326538086,-107.28837585449219,-123.02400970458984,-119.26891326904297,-96.6489486694336,-0.44140625,0.880615234375,0.028076171875,-0.1220703050494194,-0.9155272841453552,-0.0610351525247097,66.66667175292969,183.0,1.0,WarmUp
-111.66931915283203,-134.736328125,-61.06496810913086,-125.79562377929688,-107.02015686035156,-123.20281982421875,-119.35832214355469,-96.47013092041016,-0.441162109375,0.882080078125,0.02734375,0.0610351525247097,-0.7934569716453552,-0.1220703050494194,66.66667175292969,184.0,1.0,WarmUp
-111.66931915283203,-134.91513061523438,-60.88615417480469,-125.79562377929688,-107.10956573486328,-123.11341094970703,-119.4477310180664,-96.02310180664062,-0.4404296875,0.884033203125,0.03076171875,0.03051757626235485,-0.9460448622703552,-0.0915527269244194,66.66667175292969,185.0,1.0,WarmUp
-111.75872802734375,-135.27276611328125,-60.61793518066406,-125.70621490478516,-107.02015686035156,-122.93460083007812,-119.26891326904297,-95.75487518310547,-0.441162109375,0.88330078125,0.03076171875,-0.0915527269244194,-0.8239745497703552,0.0,66.66667175292969,186.0,1.0,WarmUp
-111.84813690185547,-135.27276611328125,-60.43912124633789,-125.8850326538086,-106.84134674072266,-122.8451919555664,-119.17950439453125,-95.48665618896484,-0.439453125,0.884765625,0.02880859375,-0.0610351525247097,-0.8850097060203552,0.1220703050494194,66.66667175292969,187.0,1.0,WarmUp
-111.84813690185547,-135.0939483642578,-60.43912124633789,-125.79562377929688,-106.75193786621094,-123.02400970458984,-119.00069427490234,-95.21843719482422,-0.43896484375,0.886962890625,0.028076171875,0.03051757626235485,-0.7934569716453552,0.2746581733226776,66.66667175292969,188.0,1.0,WarmUp
-111.84813690185547,-135.36216735839844,-60.08149337768555,-125.8850326538086,-106.66252899169922,-123.02400970458984,-119.09010314941406,-95.1290283203125,-0.438720703125,0.88525390625,0.02490234375,0.0610351525247097,-0.7324218153953552,0.2746581733226776,66.66667175292969,189.0,1.0,WarmUp
-111.84813690185547,-135.54098510742188,-59.99208450317383,-125.70621490478516,-106.66252899169922,-122.93460083007812,-119.4477310180664,-95.03961944580078,-0.4404296875,0.884033203125,0.024658203125,0.0,-0.7324218153953552,0.3662109076976776,66.66667175292969,190.0,1.0,WarmUp
-111.57991027832031,-135.54098510742188,-59.813270568847656,-125.70621490478516,-106.3943099975586,-122.8451919555664,-119.26891326904297,-94.68199157714844,-0.43896484375,0.8837890625,0.02685546875,-0.0915527269244194,-0.8239745497703552,0.3662109076976776,66.66667175292969,191.0,1.0,WarmUp
-111.66931915283203,-135.7198028564453,-59.54505157470703,-125.79562377929688,-106.30490112304688,-122.93460083007812,-119.09010314941406,-94.41377258300781,-0.4384765625,0.883544921875,0.025146484375,-0.1220703050494194,-0.8850097060203552,0.3356933295726776,66.66667175292969,192.0,1.0,WarmUp
-111.84813690185547,-135.54098510742188,-59.27682876586914,-125.79562377929688,-106.30490112304688,-123.11341094970703,-119.17950439453125,-94.2349624633789,-0.439697265625,0.88427734375,0.0263671875,-0.1831054538488388,-0.9460448622703552,0.1831054538488388,66.66667175292969,193.0,1.0,WarmUp
-111.84813690185547,-135.4515838623047,-58.9192008972168,-126.0638427734375,-105.85786437988281,-123.11341094970703,-119.00069427490234,-94.14555358886719,-0.4384765625,0.8837890625,0.027099609375,-0.2441406100988388,-0.9765624403953552,0.2746581733226776,66.66667175292969,194.0,1.0,WarmUp
-111.84813690185547,-135.54098510742188,-58.56157302856445,-125.97444152832031,-105.6790542602539,-122.93460083007812,-119.00069427490234,-93.96673583984375,-0.437255859375,0.88427734375,0.027099609375,-0.2441406100988388,-0.9155272841453552,0.3051757514476776,66.66667175292969,195.0,1.0,WarmUp
-111.75872802734375,-135.8092041015625,-58.38275909423828,-125.79562377929688,-105.50023651123047,-123.02400970458984,-118.8218765258789,-93.51970672607422,-0.436279296875,0.884765625,0.027587890625,-0.2136230319738388,-0.9155272841453552,0.4272460639476776,66.66667175292969,196.0,1.0,WarmUp
-111.66931915283203,-135.8092041015625,-58.114540100097656,-125.79562377929688,-105.41083526611328,-123.02400970458984,-118.8218765258789,-93.34088897705078,-0.435546875,0.8837890625,0.02685546875,-0.1220703050494194,-0.8239745497703552,0.3051757514476776,66.66667175292969,197.0,1.0,WarmUp
-111.84813690185547,-135.8986053466797,-58.02513122558594,-125.8850326538086,-105.23201751708984,-123.02400970458984,-118.73247528076172,-93.25148010253906,-0.436279296875,0.887939453125,0.02490234375,-0.03051757626235485,-0.8239745497703552,0.3967284858226776,66.66667175292969,198.0,1.0,WarmUp
-111.57991027832031,-135.98802185058594,-57.75691223144531,-125.8850326538086,-105.23201751708984,-123.11341094970703,-118.55365753173828,-92.89385223388672,-0.434326171875,0.888916015625,0.021484375,-0.0610351525247097,-0.8239745497703552,0.3662109076976776,66.66667175292969,199.0,1.0,WarmUp
-111.57991027832031,-135.98802185058594,-57.39928436279297,-125.97444152832031,-105.14260864257812,-122.8451919555664,-118.37484741210938,-92.80445098876953,-0.43359375,0.88818359375,0.023193359375,-0.1831054538488388,-0.9765624403953552,0.2441406100988388,66.66667175292969,200.0,1.0,WarmUp
-111.84813690185547,-136.16683959960938,-57.13106155395508,-125.97444152832031,-105.05320739746094,-122.8451919555664,-118.55365753173828,-92.17859649658203,-0.43505859375,0.886962890625,0.02294921875,-0.2136230319738388,-1.0375975370407104,0.3051757514476776,66.66667175292969,201.0,1.0,WarmUp
-111.93753814697266,-136.34564208984375,-56.23699188232422,-125.97444152832031,-104.96379852294922,-123.02400970458984,-116.40789031982422,-73.85016632080078,-0.43505859375,0.885498046875,0.0244140625,-0.2136230319738388,-1.0681151151657104,0.2136230319738388,66.66667175292969,202.0,1.0,WarmUp
-111.31169128417969,-136.25624084472656,-34.5110969543457,-115.96085357666016,-102.81803131103516,-114.35153198242188,-77.06881713867188,5.811453819274902,-0.434814453125,0.884033203125,0.024169921875,-0.2441406100988388,-1.0375975370407104,0.1525878757238388,66.66667175292969,203.0,1.0,WarmUp
-85.65188598632812,-122.57697296142578,46.84925842285156,-32.72295379638672,-58.38275909423828,-33.61702346801758,55.52173614501953,155.65756225585938,-0.43603515625,0.883056640625,0.028564453125,-0.2136230319738388,-1.0070799589157104,-0.03051757626235485,66.66667175292969,204.0,1.0,WarmUp
32.54413986206055,-18.239025115966797,246.58445739746094,164.15121459960938,112.56339263916016,161.7372283935547,288.15869140625,387.2216491699219,-0.436279296875,0.883056640625,0.030517578125,-0.1831054538488388,-0.9765624403953552,-0.0915527269244194,66.66667175292969,205.0,1.0,WarmUp
207.0665740966797,164.59825134277344,470.5489501953125,388.3839416503906,332.8621826171875,381.1419677734375,512.1231689453125,610.560302734375,-0.43505859375,0.883544921875,0.029296875,-0.0915527269244194,-0.8544921278953552,-0.0610351525247097,66.66667175292969,206.0,1.0,WarmUp
340.282958984375,303.6260986328125,609.5767822265625,526.5177001953125,468.76080322265625,517.5770263671875,649.0053100585938,748.2470092773438,-0.434814453125,0.884033203125,0.028076171875,0.0610351525247097,-0.7934569716453552,-0.0915527269244194,66.66667175292969,207.0,1.0,WarmUp
444.62091064453125,411.0932922363281,718.5639038085938,634.4319458007812,574.3504638671875,623.9713134765625,756.6513061523438,856.340087890625,-0.435546875,0.885498046875,0.028076171875,0.0915527269244194,-0.7629393935203552,-0.1220703050494194,66.66667175292969,208.0,1.0,WarmUp
611.9013671875,584.1852416992188,894.06982421875,808.5967407226562,744.1343383789062,795.1856689453125,930.4584350585938,1030.862548828125,-0.43603515625,0.88671875,0.027587890625,0.0915527269244194,-0.8239745497703552,-0.2746581733226776,66.66667175292969,209.0,1.0,WarmUp
847.041748046875,826.8357543945312,1139.044921875,1052.052001953125,982.1356811523438,1034.79638671875,1174.8970947265625,1276.0164794921875,-0.43603515625,0.886474609375,0.02587890625,0.03051757626235485,-0.8544921278953552,-0.3051757514476776,66.66667175292969,210.0,1.0,WarmUp
1069.2181396484375,1054.1082763671875,1369.5361328125,1281.738525390625,1206.457763671875,1261.532470703125,1408.070556640625,1508.7427978515625,-0.435791015625,0.8857421875,0.027099609375,0.03051757626235485,-0.7629393935203552,-0.3356933295726776,66.66667175292969,211.0,1.0,WarmUp
1210.212890625,1196.176025390625,1514.2860107421875,1427.2930908203125,1348.8831787109375,1405.2989501953125,1556.307373046875,1656.9796142578125,-0.43310546875,0.885986328125,0.02587890625,0.03051757626235485,-0.8544921278953552,-0.4577636420726776,66.66667175292969,212.0,1.0,WarmUp
1317.5906982421875,1302.7491455078125,1623.9884033203125,1537.5318603515625,1457.60205078125,1515.0013427734375,1669.049560546875,1769.6324462890625,-0.432861328125,0.884033203125,0.023193359375,-0.0610351525247097,-0.9155272841453552,-0.6103515028953552,66.66667175292969,213.0,1.0,WarmUp
1490.324951171875,1471.728271484375,1799.13671875,1714.2000732421875,1632.4820556640625,1691.222412109375,1850.00927734375,1949.3404541015625,-0.435546875,0.883056640625,0.025634765625,0.0,-0.8850097060203552,-0.5187987685203552,66.66667175292969,214.0,1.0,WarmUp
1742.36328125,1714.46826171875,2051.71142578125,1969.904052734375,1887.0238037109375,1946.7476806640625,2111.345947265625,2209.067626953125,-0.435302734375,0.883056640625,0.029052734375,-0.03051757626235485,-0.9155272841453552,-0.5187987685203552,66.66667175292969,215.0,1.0,WarmUp
1983.6727294921875,1944.7806396484375,2291.769287109375,2212.64404296875,2130.747314453125,2189.9345703125,2357.75146484375,2454.758056640625,-0.4375,0.885498046875,0.026611328125,0.03051757626235485,-0.8239745497703552,-0.6103515028953552,66.66667175292969,216.0,1.0,WarmUp
2135.396240234375,2088.8154296875,2442.2412109375,2364.010009765625,2283.00732421875,2341.837158203125,2510.90576171875,2607.46533203125,-0.43798828125,0.88525390625,0.025634765625,0.0915527269244194,-0.8544921278953552,-0.4882812201976776,66.66667175292969,217.0,1.0,WarmUp
2248.585693359375,2196.7294921875,2554.26806640625,2476.841552734375,2396.6435546875,2455.205078125,2624.720703125,2721.19091796875,-0.435302734375,0.885009765625,0.02734375,0.2441406100988388,-0.8239745497703552,-0.4577636420726776,66.66667175292969,218.0,1.0,WarmUp
2429.277099609375,2370.447265625,2733.529052734375,2656.460205078125,2578.05029296875,2635.80712890625,2805.501708984375,2902.239990234375,-0.436279296875,0.884521484375,0.02685546875,0.1220703050494194,-0.7324218153953552,-0.3662109076976776,66.66667175292969,219.0,1.0,WarmUp
2684.8916015625,2618.81982421875,2987.802490234375,2911.09130859375,2835.453125,2891.242919921875,3061.02685546875,3157.944091796875,-0.4384765625,0.88623046875,0.024169921875,0.1525878757238388,-0.7324218153953552,-0.3356933295726776,66.66667175292969,220.0,1.0,WarmUp
2925.48583984375,2854.496826171875,3227.502685546875,3150.16552734375,3077.1201171875,3131.56884765625,3300.72705078125,3398.001708984375,-0.4384765625,0.886962890625,0.025390625,0.0915527269244194,-0.6713866591453552,-0.3356933295726776,66.66667175292969,221.0,1.0,WarmUp
3074.79541015625,3002.3759765625,3376.722900390625,3298.938720703125,3227.14501953125,3280.789306640625,3449.768310546875,3547.847900390625,-0.4365234375,0.883544921875,0.024169921875,-0.1220703050494194,-0.7934569716453552,-0.3967284858226776,66.66667175292969,222.0,1.0,WarmUp
3185.034423828125,3111.720703125,3486.961669921875,3409.088134765625,3337.920166015625,3391.296142578125,3560.00732421875,3658.176025390625,-0.43798828125,0.88330078125,0.025634765625,-0.0610351525247097,-0.9155272841453552,-0.4577636420726776,66.66667175292969,223.0,1.0,WarmUp
3356.338134765625,3282.488037109375,3658.623046875,3579.85546875,3510.02880859375,3563.047119140625,3731.042724609375,3829.65869140625,-0.437744140625,0.88330078125,0.02734375,-0.1525878757238388,-0.9155272841453552,-0.4272460639476776,66.66667175292969,224.0,1.0,WarmUp
3603.190673828125,3529.966552734375,3906.459228515625,3826.708251953125,3758.133056640625,3810.614990234375,3978.253173828125,4077.494873046875,-0.43798828125,0.8837890625,0.026611328125,-0.03051757626235485,-0.8850097060203552,-0.3967284858226776,66.66667175292969,225.0,1.0,WarmUp
3834.93359375,3762.961181640625,4139.6328125,4059.34521484375,3991.39599609375,4043.520263671875,4210.71142578125,4310.22119140625,-0.435302734375,0.884033203125,0.0283203125,0.03051757626235485,-0.8850097060203552,-0.3967284858226776,66.66667175292969,226.0,1.0,WarmUp
3977.18017578125,3906.280517578125,4283.3095703125,4202.396484375,4134.89404296875,4186.75,4354.03076171875,4453.8984375,-0.436279296875,0.88525390625,0.027099609375,0.0610351525247097,-0.7324218153953552,-0.3967284858226776,66.66667175292969,227.0,1.0,WarmUp
4083.0380859375,4012.406494140625,4389.525390625,4308.43310546875,4241.109375,4292.9658203125,4460.33544921875,4560.650390625,-0.4365234375,0.88427734375,0.024169921875,0.0915527269244194,-0.6103515028953552,-0.3356933295726776,66.66667175292969,228.0,1.0,WarmUp
4249.60302734375,4180.2236328125,4557.1630859375,4475.71337890625,4408.56884765625,4460.51416015625,4627.794921875,4728.556640625,-0.43896484375,0.883544921875,0.0234375,0.1525878757238388,-0.5798339247703552,-0.3356933295726776,66.66667175292969,229.0,1.0,WarmUp
4491.6279296875,4424.21533203125,4801.15478515625,4719.34765625,4652.203125,4704.41650390625,4871.33935546875,4972.6376953125,-0.4375,0.885009765625,0.02490234375,0.0,-0.7019042372703552,-0.4882812201976776,66.66667175292969,230.0,1.0,WarmUp
4721.9404296875,4656.13671875,5033.52392578125,4951.35888671875,4884.2138671875,4936.51708984375,5104.06591796875,5205.2744140625,-0.4384765625,0.88427734375,0.028076171875,-0.03051757626235485,-0.7934569716453552,-0.3967284858226776,66.66667175292969,231.0,1.0,WarmUp
4862.845703125,4797.9365234375,5176.03857421875,5093.06884765625,5026.37109375,5078.67431640625,5245.77587890625,5347.2529296875,-0.4404296875,0.884521484375,0.02734375,-0.1220703050494194,-0.8239745497703552,-0.4577636420726776,66.66667175292969,232.0,1.0,WarmUp
4966.28955078125,4901.91650390625,5280.10791015625,5196.8701171875,5130.26220703125,5182.654296875,5349.30908203125,5451.05419921875,-0.441162109375,0.884521484375,0.029296875,-0.1220703050494194,-0.8544921278953552,-0.4272460639476776,66.66667175292969,233.0,1.0,WarmUp
5128.294921875,5064.9951171875,5443.72314453125,5360.30615234375,5293.2509765625,5345.73291015625,5513.63916015625,5614.9375,-0.43994140625,0.884033203125,0.029296875,-0.0610351525247097,-0.8239745497703552,-0.3051757514476776,66.66667175292969,234.0,1.0,WarmUp
5366.3857421875,5304.0693359375,5683.4228515625,5599.73828125,5532.7724609375,5585.16455078125,5753.69677734375,5854.5478515625,-0.440673828125,0.885009765625,0.028564453125,-0.0610351525247097,-0.8239745497703552,-0.3967284858226776,66.66667175292969,235.0,1.0,WarmUp
5594.2841796875,5532.59326171875,5912.9306640625,5828.9775390625,5762.1904296875,5815.11962890625,5983.38330078125,6084.77099609375,-0.439697265625,0.884521484375,0.029296875,-0.03051757626235485,-0.8239745497703552,-0.2441406100988388,66.66667175292969,236.0,1.0,WarmUp
5736.17333984375,5674.6611328125,6055.62451171875,5972.02880859375,5904.794921875,5957.90234375,6126.8818359375,6227.822265625,-0.43896484375,0.88671875,0.028076171875,-0.03051757626235485,-0.6713866591453552,-0.1525878757238388,66.66667175292969,237.0,1.0,WarmUp
5838.6337890625,5777.3896484375,6158.62109375,6075.025390625,6007.79150390625,6060.8994140625,6230.236328125,6331.1767578125,-0.43994140625,0.885009765625,0.026611328125,-0.03051757626235485,-0.7629393935203552,-0.1525878757238388,66.66667175292969,238.0,1.0,WarmUp
5998.04638671875,5937.3388671875,6319.375,6235.33251953125,6168.0087890625,6221.47412109375,6390.900390625,6492.109375,-0.440185546875,0.88427734375,0.024169921875,-0.0915527269244194,-0.8239745497703552,-0.1525878757238388,66.66667175292969,239.0,1.0,WarmUp
6232.91845703125,6172.92626953125,6555.8564453125,6471.81396484375,6404.40087890625,6457.95556640625,6627.560546875,6728.9482421875,-0.4404296875,0.884765625,0.025634765625,-0.1525878757238388,-0.8239745497703552,-0.0610351525247097,66.66667175292969,240.0,1.0,WarmUp
6460.458984375,6400.466796875,6784.38037109375,6700.06982421875,6632.92529296875,6686.03271484375,6856.263671875,6957.6513671875,-0.440673828125,0.88330078125,0.026123046875,-0.0915527269244194,-0.7934569716453552,-0.0915527269244194,66.66667175292969,241.0,1.0,WarmUp
6598.95068359375,6539.0478515625,6923.58740234375,6839.2763671875,6771.7744140625,6824.703125,6995.56005859375,7097.12646484375,-0.43896484375,0.880615234375,0.028076171875,-0.1220703050494194,-0.8544921278953552,-0.0610351525247097,66.66667175292969,242.0,1.0,WarmUp
6697.7451171875,6638.11083984375,7023.0078125,6938.8759765625,6871.37353515625,6924.212890625,7095.24853515625,7196.904296875,-0.439453125,0.8798828125,0.028076171875,-0.2441406100988388,-0.7934569716453552,-0.1831054538488388,66.66667175292969,243.0,1.0,WarmUp
6858.0517578125,6798.41748046875,7184.119140625,7099.89794921875,7032.57421875,7085.50341796875,7256.80712890625,7358.19482421875,-0.4375,0.88134765625,0.030029296875,-0.1220703050494194,-0.7629393935203552,-0.0610351525247097,66.66667175292969,244.0,1.0,WarmUp
7090.68896484375,7030.96484375,7417.91845703125,7333.51806640625,7266.55224609375,7319.74951171875,7490.6064453125,7592.3515625,-0.438720703125,0.883544921875,0.02880859375,0.03051757626235485,-0.7019042372703552,0.0,66.66667175292969,245.0,1.0,WarmUp
7317.8720703125,7258.23779296875,7645.99560546875,7561.41650390625,7494.80859375,7548.1845703125,7719.041015625,7820.7861328125,-0.4404296875,0.884521484375,0.026123046875,-0.03051757626235485,-0.7629393935203552,-0.03051757626235485,66.66667175292969,246.0,1.0,WarmUp
7458.77734375,7399.14306640625,7787.34814453125,7703.03759765625,7636.33984375,7689.7158203125,7860.66162109375,7962.943359375,-0.439697265625,0.88671875,0.02392578125,-0.03051757626235485,-0.8544921278953552,0.03051757626235485,66.66667175292969,247.0,1.0,WarmUp
7555.962890625,7496.32861328125,7884.98046875,7800.22265625,7733.79345703125,7787.16943359375,7958.205078125,8060.57568359375,-0.440185546875,0.886962890625,0.0224609375,-0.0610351525247097,-0.7324218153953552,0.0915527269244194,66.66667175292969,248.0,1.0,WarmUp
7710.7265625,7651.18115234375,8040.7275390625,7956.1484375,7889.54052734375,7943.1845703125,8114.3095703125,8216.1435546875,-0.437744140625,0.88623046875,0.022705078125,-0.0915527269244194,-0.7934569716453552,0.1831054538488388,66.66667175292969,249.0,1.0,WarmUp
7942.11181640625,7882.208984375,8272.828125,8188.427734375,8121.73046875,8175.4638671875,8346.677734375,8448.5126953125,-0.4384765625,0.885986328125,0.025634765625,-0.1831054538488388,-0.8850097060203552,0.2136230319738388,66.66667175292969,250.0,1.0,WarmUp
8168.75830078125,8108.6767578125,8500.5478515625,8416.0576171875,8349.62890625,8402.826171875,8574.666015625,8676.7685546875,-0.439697265625,0.8837890625,0.02685546875,-0.2136230319738388,-0.8544921278953552,0.1831054538488388,66.66667175292969,251.0,1.0,WarmUp
8307.16015625,8247.4365234375,8639.486328125,8555.0859375,8488.8349609375,8542.1220703125,8713.9619140625,8816.244140625,-0.441162109375,0.881591796875,0.029052734375,-0.1525878757238388,-0.8544921278953552,0.0610351525247097,66.66667175292969,252.0,1.0,WarmUp
8401.216796875,8341.3134765625,8733.810546875,8648.962890625,8583.16015625,8636.3564453125,8808.197265625,8910.92578125,-0.44091796875,0.88232421875,0.0283203125,-0.1831054538488388,-0.9460448622703552,0.0610351525247097,66.66667175292969,253.0,1.0,WarmUp
8553.2978515625,8493.3955078125,8886.517578125,8801.759765625,8736.3134765625,8789.1533203125,8961.3515625,9064.1689453125,-0.439697265625,0.880615234375,0.02734375,-0.0915527269244194,-0.9765624403953552,0.0610351525247097,66.66667175292969,254.0,1.0,WarmUp
8783.7890625,8723.796875,9118.2607421875,9033.234375,8967.7880859375,9020.6279296875,9193.8095703125,9296.1806640625,-0.438232421875,0.882568359375,0.028076171875,-0.2441406100988388,-0.9765624403953552,0.1525878757238388,66.66667175292969,255.0,1.0,WarmUp
9007.57421875,8947.224609375,9342.8505859375,9257.9140625,9192.37890625,9245.3974609375,9418.8466796875,9521.0390625,-0.4375,0.88330078125,0.029052734375,-0.1831054538488388,-0.8239745497703552,0.1525878757238388,66.66667175292969,256.0,1.0,WarmUp
9142.6689453125,9082.05078125,9478.302734375,9393.3662109375,9327.6513671875,9381.02734375,9554.2978515625,9656.490234375,-0.437744140625,0.88427734375,0.027587890625,-0.1220703050494194,-0.7934569716453552,0.1220703050494194,66.66667175292969,257.0,1.0,WarmUp
9236.27734375,9175.5703125,9572.0009765625,9486.8857421875,9421.1708984375,9474.8154296875,9647.818359375,9750.2783203125,-0.440185546875,0.889404296875,0.02685546875,-0.03051757626235485,-0.7324218153953552,0.0,66.66667175292969,258.0,1.0,WarmUp
9388.716796875,9327.7412109375,9724.7978515625,9640.12890625,9574.4150390625,9628.3271484375,9801.1513671875,9903.701171875,-0.437255859375,0.88916015625,0.027099609375,-0.03051757626235485,-0.7934569716453552,0.03051757626235485,66.66667175292969,259.0,1.0,WarmUp
9615.1845703125,9554.2978515625,9952.2490234375,9867.580078125,9802.044921875,9855.8681640625,10029.138671875,10131.599609375,-0.43798828125,0.8876953125,0.02783203125,-0.03051757626235485,-0.7934569716453552,-0.1220703050494194,66.66667175292969,260.0,1.0,WarmUp
9837.62890625,9776.474609375,10175.3193359375,10090.3828125,10024.84765625,10078.669921875,10251.76171875,10354.7587890625,-0.437255859375,0.88623046875,0.02587890625,-0.0610351525247097,-0.8850097060203552,-0.1525878757238388,66.66667175292969,261.0,1.0,WarmUp
9975.4052734375,9913.982421875,10313.7216796875,10228.248046875,10162.8017578125,10216.8935546875,10389.806640625,10493.0712890625,-0.439208984375,0.8837890625,0.026611328125,-0.0915527269244194,-0.8850097060203552,-0.2136230319738388,66.66667175292969,262.0,1.0,WarmUp
10066.0634765625,10004.462890625,10404.3798828125,10319.1748046875,10253.908203125,10307.8203125,10481.0908203125,10583.9091796875,-0.438232421875,0.881103515625,0.02587890625,-0.03051757626235485,-0.9460448622703552,-0.2746581733226776,66.66667175292969,263.0,1.0,WarmUp
10213.7646484375,10152.1630859375,10552.52734375,10467.2333984375,10402.234375,10456.0576171875,10629.685546875,10732.6826171875,-0.43798828125,0.88232421875,0.027099609375,0.0610351525247097,-0.8239745497703552,-0.2441406100988388,66.66667175292969,264.0,1.0,WarmUp
10437.728515625,10376.4853515625,10777.7431640625,10692.091796875,10627.4501953125,10681.0947265625,10854.9912109375,10957.8984375,-0.4384765625,0.885009765625,0.031005859375,0.0915527269244194,-0.7934569716453552,-0.1525878757238388,66.66667175292969,265.0,1.0,WarmUp
10658.02734375,10596.2470703125,10998.220703125,10912.748046875,10848.1064453125,10901.572265625,11075.826171875,11178.64453125,-0.4384765625,0.884765625,0.029541015625,0.0610351525247097,-0.7629393935203552,-0.2136230319738388,66.66667175292969,266.0,1.0,WarmUp
10793.8369140625,10731.7880859375,11134.56640625,11049.00390625,10984.4521484375,11038.0966796875,11211.9033203125,11315.0791015625,-0.44091796875,0.88671875,0.025634765625,0.0610351525247097,-0.7324218153953552,-0.1525878757238388,66.66667175292969,267.0,1.0,WarmUp
10883.6904296875,10822.357421875,11224.95703125,11139.484375,11074.8427734375,11128.8447265625,11302.5625,11405.8271484375,-0.439697265625,0.888916015625,0.02685546875,0.03051757626235485,-0.6408690810203552,-0.1831054538488388,66.66667175292969,268.0,1.0,WarmUp
11027.099609375,10965.587890625,11368.455078125,11282.982421875,11218.162109375,11272.521484375,11446.41796875,11549.5048828125,-0.4375,0.886962890625,0.030029296875,0.0610351525247097,-0.7324218153953552,-0.0915527269244194,66.66667175292969,269.0,1.0,WarmUp
11247.9345703125,11185.88671875,11589.7373046875,11504.3544921875,11439.5341796875,11493.8037109375,11667.96875,11771.2333984375,-0.440185546875,0.88525390625,0.02685546875,0.03051757626235485,-0.7629393935203552,-0.1220703050494194,66.66667175292969,270.0,1.0,WarmUp
11470.021484375,11407.615234375,11812.361328125,11726.6201171875,11662.42578125,11716.5166015625,11890.9501953125,11994.0361328125,-0.438720703125,0.884033203125,0.027587890625,-0.0610351525247097,-0.7934569716453552,-0.1831054538488388,66.66667175292969,271.0,1.0,WarmUp
11604.84765625,11542.2626953125,11947.1865234375,11861.7138671875,11797.609375,11851.6103515625,12025.9541015625,12129.30859375,-0.43896484375,0.884033203125,0.02783203125,-0.0610351525247097,-0.8850097060203552,-0.2136230319738388,66.66667175292969,272.0,1.0,WarmUp
11693.4501953125,11630.9541015625,12036.236328125,11950.4951171875,11886.5693359375,11940.5703125,12114.466796875,12218.0009765625,-0.440673828125,0.883544921875,0.028564453125,0.03051757626235485,-0.8850097060203552,-0.1831054538488388,66.66667175292969,273.0,1.0,WarmUp
11833.103515625,11770.787109375,12176.6943359375,12090.6845703125,12026.669921875,12081.2080078125,12255.0146484375,12358.6376953125,-0.440185546875,0.883544921875,0.027587890625,-0.03051757626235485,-0.8239745497703552,-0.1525878757238388,66.66667175292969,274.0,1.0,WarmUp
12053.4912109375,11990.638671875,12397.0830078125,12311.251953125,12247.5947265625,12301.7744140625,12475.939453125,12579.47265625,-0.43994140625,0.88330078125,0.025146484375,-0.03051757626235485,-0.9155272841453552,0.0,66.66667175292969,275.0,1.0,WarmUp
12276.2939453125,12213.5302734375,12620.4208984375,12534.8583984375,12471.201171875,12525.2919921875,12699.3681640625,12803.34765625,-0.438232421875,0.88525390625,0.02880859375,-0.03051757626235485,-0.9155272841453552,0.0610351525247097,66.66667175292969,276.0,1.0,WarmUp
12414.5166015625,12351.8427734375,12759.359375,12673.9765625,12609.603515625,12664.3203125,12838.4853515625,12942.46484375,-0.43896484375,0.885498046875,0.026611328125,0.1220703050494194,-0.8239745497703552,0.0610351525247097,66.66667175292969,277.0,1.0,WarmUp
12499.990234375,12437.2265625,12844.7431640625,12759.2705078125,12695.2548828125,12749.8828125,12924.583984375,13028.02734375,-0.439453125,0.886962890625,0.025146484375,0.03051757626235485,-0.7629393935203552,0.1220703050494194,66.66667175292969,278.0,1.0,WarmUp
12639.46484375,12576.701171875,12984.486328125,12899.013671875,12835.2666015625,12889.8046875,13064.505859375,13167.9501953125,-0.438720703125,0.886962890625,0.0234375,-0.0610351525247097,-0.7934569716453552,0.0,66.66667175292969,279.0,1.0,WarmUp
12857.6181640625,12794.7646484375,13203.712890625,13117.703125,13054.134765625,13108.6728515625,13283.1953125,13386.9072265625,-0.441162109375,0.88671875,0.02392578125,-0.0915527269244194,-0.8239745497703552,0.0,66.66667175292969,280.0,1.0,WarmUp
13080.509765625,13017.1201171875,13426.783203125,13341.0419921875,13277.5625,13332.1005859375,13506.5341796875,13610.5146484375,-0.4384765625,0.8837890625,0.02490234375,-0.1220703050494194,-0.8850097060203552,-0.03051757626235485,66.66667175292969,281.0,1.0,WarmUp
13215.603515625,13152.5712890625,13562.234375,13476.671875,13413.193359375,13467.6416015625,13642.1640625,13746.3232421875,-0.439208984375,0.88525390625,0.0244140625,-0.2441406100988388,-0.9765624403953552,-0.0610351525247097,66.66667175292969,282.0,1.0,WarmUp
13299.8251953125,13236.79296875,13646.9033203125,13560.982421875,13497.6826171875,13551.86328125,13726.564453125,13830.8134765625,-0.439208984375,0.88427734375,0.025390625,-0.2441406100988388,-0.8544921278953552,-0.03051757626235485,66.66667175292969,283.0,1.0,WarmUp
13436.4384765625,13373.228515625,13783.9638671875,13697.865234375,13634.654296875,13689.013671875,13863.625,13967.9638671875,-0.4365234375,0.884765625,0.029296875,-0.2441406100988388,-0.8850097060203552,0.03051757626235485,66.66667175292969,284.0,1.0,WarmUp
13651.8203125,13588.251953125,13999.8818359375,13913.603515625,13850.572265625,13905.19921875,14079.54296875,14183.7919921875,-0.4375,0.884033203125,0.028076171875,-0.1525878757238388,-0.7934569716453552,0.0,66.66667175292969,285.0,1.0,WarmUp
13870.6884765625,13806.8515625,14218.9287109375,14132.6513671875,14069.619140625,14124.3359375,14298.5009765625,14403.107421875,-0.436767578125,0.8818359375,0.029296875,-0.0610351525247097,-0.8239745497703552,0.03051757626235485,66.66667175292969,286.0,1.0,WarmUp
14005.24609375,13941.587890625,14353.6650390625,14267.2978515625,14204.4453125,14259.3408203125,14433.05859375,14538.111328125,-0.435302734375,0.884521484375,0.025634765625,0.0,-0.8239745497703552,0.0610351525247097,66.66667175292969,287.0,1.0,WarmUp
14088.39453125,14024.916015625,14437.08203125,14350.8037109375,14287.861328125,14343.2939453125,14517.01171875,14622.064453125,-0.435546875,0.886962890625,0.028076171875,0.0,-0.8544921278953552,0.0915527269244194,66.66667175292969,288.0,1.0,WarmUp
14221.2529296875,14157.6845703125,14570.2978515625,14483.751953125,14421.078125,14476.15234375,14650.49609375,14755.19140625,-0.439697265625,0.885498046875,0.02685546875,-0.1831054538488388,-1.0070799589157104,0.0610351525247097,66.66667175292969,289.0,1.0,WarmUp
14433.505859375,14369.400390625,14782.6396484375,14696.3623046875,14633.6875,14688.7626953125,14863.28515625,14967.533203125,-0.43896484375,0.88671875,0.025634765625,-0.1525878757238388,-0.9460448622703552,0.0610351525247097,66.66667175292969,290.0,1.0,WarmUp
14651.4794921875,14587.28515625,15001.0615234375,14914.9619140625,14852.01953125,14907.3623046875,15081.884765625,15186.3125,-0.439208984375,0.883544921875,0.02587890625,-0.1525878757238388,-0.8850097060203552,0.03051757626235485,66.66667175292969,291.0,1.0,WarmUp
14785.1435546875,14721.216796875,15135.3505859375,15048.6259765625,14986.1298828125,15041.5625,15215.90625,15320.6015625,-0.4384765625,0.88330078125,0.026123046875,-0.03051757626235485,-0.9155272841453552,-0.1220703050494194,66.66667175292969,292.0,1.0,WarmUp
14867.666015625,14803.203125,15217.873046875,15131.1484375,15068.4736328125,15124.1748046875,15297.802734375,15402.6767578125,-0.436767578125,0.881103515625,0.023681640625,-0.03051757626235485,-0.8544921278953552,-0.1831054538488388,66.66667175292969,293.0,1.0,WarmUp
14998.6474609375,14934.2744140625,15348.4072265625,15262.21875,15199.7236328125,15255.3349609375,15423.8662109375,15529.009765625,-0.43701171875,0.88134765625,0.027587890625,-0.0915527269244194,-0.9155272841453552,-0.1831054538488388,66.66667175292969,294.0,1.0,WarmUp
15205.802734375,15141.3408203125,15549.1259765625,15462.7587890625,15407.05859375,15463.02734375,15621.634765625,15727.224609375,-0.436279296875,0.881591796875,0.02685546875,-0.0610351525247097,-0.8544921278953552,-0.2136230319738388,66.66667175292969,295.0,1.0,WarmUp
15420.8271484375,15356.0966796875,15747.4306640625,15661.5107421875,15622.2607421875,15677.8720703125,15848.9970703125,15954.4970703125,-0.4365234375,0.883056640625,0.02978515625,-0.03051757626235485,-0.7934569716453552,-0.3051757514476776,66.66667175292969,296.0,1.0,WarmUp
15550.3779296875,15485.826171875,15896.3828125,15809.92578125,15749.576171875,15805.3662109375,15982.66015625,16088.0712890625,-0.43701171875,0.88525390625,0.02783203125,0.0,-0.7629393935203552,-0.3356933295726776,66.66667175292969,297.0,1.0,WarmUp
15625.748046875,15560.927734375,15979.3525390625,15892.806640625,15820.2080078125,15875.4609375,16060.4443359375,16165.408203125,-0.43701171875,0.88525390625,0.02685546875,-0.03051757626235485,-0.7324218153953552,-0.2746581733226776,66.66667175292969,298.0,1.0,WarmUp
15740.45703125,15675.546875,16107.115234375,16020.748046875,15934.4697265625,15989.455078125,16187.849609375,16292.9921875,-0.437255859375,0.885009765625,0.02880859375,0.0610351525247097,-0.7324218153953552,-0.3662109076976776,66.66667175292969,299.0,1.0,WarmUp
15906.0380859375,15840.5029296875,16312.3935546875,16225.84765625,16150.7451171875,16206.4462890625,16391.517578125,16496.75,-0.43701171875,0.88623046875,0.02880859375,0.1220703050494194,-0.7019042372703552,-0.3051757514476776,66.66667175292969,300.0,1.0,WarmUp
16147.7060546875,16082.259765625,16520.890625,16433.986328125,16376.498046875,16432.556640625,16591.34375,16696.396484375,-0.438232421875,0.884765625,0.0283203125,0.2136230319738388,-0.6713866591453552,-0.4272460639476776,66.66667175292969,301.0,1.0,WarmUp
16306.4921875,16241.2255859375,16634.974609375,16547.35546875,16510.609375,16566.3984375,16713.205078125,16817.453125,-0.437744140625,0.8857421875,0.02734375,0.2136230319738388,-0.7324218153953552,-0.4577636420726776,66.66667175292969,302.0,1.0,WarmUp
16384.544921875,16318.919921875,16699.2578125,16611.19140625,16588.212890625,16644.361328125,16809.31640625,16914.548828125,-0.4384765625,0.883544921875,0.027587890625,0.0610351525247097,-0.9155272841453552,-0.3967284858226776,66.66667175292969,303.0,1.0,WarmUp
16512.0390625,16446.59375,16849.28125,16761.931640625,16716.06640625,16771.9453125,16944.412109375,17050.0,-0.439208984375,0.884033203125,0.0263671875,0.0,-0.8239745497703552,-0.5493163466453552,66.66667175292969,304.0,1.0,WarmUp
16719.373046875,16654.107421875,17072.62109375,16985.806640625,16923.490234375,16979.279296875,17153.533203125,17259.03515625,-0.439697265625,0.88525390625,0.024169921875,-0.0610351525247097,-0.7934569716453552,-0.3662109076976776,66.66667175292969,305.0,1.0,WarmUp
16931.537109375,16866.44921875,17286.662109375,17199.578125,17130.109375,17186.525390625,17367.216796875,17472.896484375,-0.4384765625,0.884033203125,0.025390625,0.03051757626235485,-0.8239745497703552,-0.3662109076976776,66.66667175292969,306.0,1.0,WarmUp
17058.494140625,16993.048828125,17415.5859375,17329.12890625,17243.923828125,17300.162109375,17496.587890625,17602.357421875,-0.438720703125,0.883544921875,0.025146484375,0.0610351525247097,-0.7629393935203552,-0.2746581733226776,66.66667175292969,307.0,1.0,WarmUp
17135.384765625,17069.669921875,17492.744140625,17405.9296875,17320.3671875,17377.05078125,17573.478515625,17679.515625,-0.43896484375,0.883544921875,0.027587890625,0.03051757626235485,-0.7629393935203552,-0.3356933295726776,66.66667175292969,308.0,1.0,WarmUp
17262.521484375,17196.896484375,17617.19921875,17530.294921875,17464.3125,17520.818359375,17697.666015625,17804.05859375,-0.440185546875,0.8828125,0.026123046875,0.03051757626235485,-0.8239745497703552,-0.1831054538488388,66.66667175292969,309.0,1.0,WarmUp
17468.24609375,17402.443359375,17822.65625,17735.751953125,17673.435546875,17729.76171875,17902.943359375,18009.6953125,-0.440673828125,0.8837890625,0.027099609375,-0.0610351525247097,-0.7934569716453552,-0.2441406100988388,66.66667175292969,310.0,1.0,WarmUp
17682.82421875,17616.841796875,18037.232421875,17950.5078125,17888.548828125,17944.697265625,18117.876953125,18224.71875,-0.438232421875,0.883056640625,0.026123046875,-0.03051757626235485,-0.8850097060203552,-0.2441406100988388,66.66667175292969,311.0,1.0,WarmUp
17814.251953125,17748.26953125,18168.75,18081.935546875,18020.15625,18076.482421875,18249.6640625,18356.326171875,-0.4365234375,0.8857421875,0.026611328125,-0.1831054538488388,-0.8239745497703552,-0.1831054538488388,66.66667175292969,312.0,1.0,WarmUp
17890.158203125,17823.728515625,18244.74609375,18157.75390625,18095.8828125,18152.12109375,18325.212890625,18432.0546875,-0.438720703125,0.88330078125,0.028076171875,-0.0915527269244194,-0.8544921278953552,-0.1220703050494194,66.66667175292969,313.0,1.0,WarmUp
18010.5,17944.25,18365.4453125,18278.54296875,18216.494140625,18272.91015625,18446.1796875,18552.6640625,-0.438720703125,0.8828125,0.0263671875,-0.0610351525247097,-0.7629393935203552,-0.0915527269244194,66.66667175292969,314.0,1.0,WarmUp
18213.453125,18147.470703125,18568.84765625,18481.67578125,18419.8046875,18476.220703125,18649.22265625,18755.88671875,-0.43896484375,0.882568359375,0.02392578125,-0.1220703050494194,-0.7934569716453552,-0.1525878757238388,66.66667175292969,315.0,1.0,WarmUp
18424.6328125,18358.650390625,18780.294921875,18693.390625,18631.341796875,18688.115234375,18860.4921875,18967.6015625,-0.43896484375,0.882568359375,0.026123046875,-0.0610351525247097,-0.7934569716453552,-0.0915527269244194,66.66667175292969,316.0,1.0,WarmUp
18555.615234375,18489.185546875,18911.185546875,18824.103515625,18762.32421875,18819.09765625,18991.83203125,19098.314453125,-0.43798828125,0.884521484375,0.029296875,0.0,-0.8239745497703552,-0.1220703050494194,66.66667175292969,317.0,1.0,WarmUp
18629.822265625,18563.125,18985.3046875,18898.310546875,18836.978515625,18893.39453125,19065.94921875,19172.701171875,-0.43798828125,0.883056640625,0.0263671875,-0.03051757626235485,-0.8544921278953552,-0.0915527269244194,66.66667175292969,318.0,1.0,WarmUp
18749.001953125,18682.572265625,19104.57421875,19017.84765625,18956.3359375,19012.484375,19185.21875,19292.328125,-0.43994140625,0.8857421875,0.02734375,-0.03051757626235485,-0.7934569716453552,-0.1220703050494194,66.66667175292969,319.0,1.0,WarmUp
18950.078125,18883.73828125,19306.365234375,19219.193359375,19157.76953125,19214.275390625,19387.009765625,19494.208984375,-0.439453125,0.88623046875,0.0283203125,-0.1220703050494194,-0.9155272841453552,0.0915527269244194,66.66667175292969,320.0,1.0,WarmUp
19163.58203125,19096.794921875,19520.046875,19432.875,19371.54296875,19428.40625,19600.3359375,19707.802734375,-0.4384765625,0.8857421875,0.028076171875,-0.0610351525247097,-0.7629393935203552,0.0610351525247097,66.66667175292969,321.0,1.0,WarmUp
19294.7421875,19228.044921875,19651.38671875,19564.03515625,19503.150390625,19559.654296875,19731.31640625,19839.05078125,-0.439208984375,0.88330078125,0.0244140625,-0.03051757626235485,-0.8239745497703552,0.0610351525247097,66.66667175292969,322.0,1.0,WarmUp
19366.267578125,19299.390625,19723.091796875,19635.919921875,19574.67578125,19631.359375,19802.931640625,19910.845703125,-0.439208984375,0.8818359375,0.02490234375,0.03051757626235485,-0.7324218153953552,0.0610351525247097,66.66667175292969,323.0,1.0,WarmUp
19482.853515625,19415.708984375,19839.767578125,19752.416015625,19691.083984375,19748.03515625,19919.607421875,20027.431640625,-0.4375,0.88134765625,0.02685546875,-0.1220703050494194,-0.7019042372703552,0.0610351525247097,66.66667175292969,324.0,1.0,WarmUp
19682.3203125,19615.087890625,20039.591796875,19952.15234375,19891.0859375,19947.771484375,20119.521484375,20227.525390625,-0.438232421875,0.881591796875,0.028564453125,-0.1220703050494194,-0.7629393935203552,0.0915527269244194,66.66667175292969,325.0,1.0,WarmUp
19895.01953125,19827.96484375,20252.73828125,20165.029296875,20104.142578125,20160.73828125,20332.578125,20440.759765625,-0.43798828125,0.882080078125,0.031494140625,-0.1220703050494194,-0.9155272841453552,0.0915527269244194,66.66667175292969,326.0,1.0,WarmUp
20025.46484375,19958.41015625,20383.271484375,20295.384765625,20234.677734375,20291.62890625,20463.291015625,20571.294921875,-0.437255859375,0.88525390625,0.030029296875,-0.1220703050494194,-1.0070799589157104,0.1525878757238388,66.66667175292969,327.0,1.0,WarmUp
20096.275390625,20029.310546875,20454.349609375,20366.91015625,20305.755859375,20362.9765625,20534.369140625,20642.283203125,-0.435546875,0.88671875,0.026611328125,-0.03051757626235485,-0.8544921278953552,0.0610351525247097,66.66667175292969,328.0,1.0,WarmUp
20210.984375,20143.662109375,20569.1484375,20481.529296875,20420.46484375,20477.953125,20649.078125,20756.724609375,-0.437255859375,0.88623046875,0.029296875,0.03051757626235485,-0.7934569716453552,0.0,66.66667175292969,329.0,1.0,WarmUp
20407.412109375,20340.177734375,20765.576171875,20678.13671875,20617.25,20674.560546875,20845.685546875,20953.8671875,-0.438720703125,0.887939453125,0.028076171875,-0.03051757626235485,-0.7934569716453552,0.0610351525247097,66.66667175292969,330.0,1.0,WarmUp
20619.75390625,20552.33984375,20977.91796875,20890.298828125,20829.76953125,20887.080078125,21058.02734375,21166.56640625,-0.438720703125,0.88525390625,0.025634765625,0.03051757626235485,-0.7629393935203552,0.0610351525247097,66.66667175292969,331.0,1.0,WarmUp
20747.248046875,20679.923828125,21105.76953125,21018.0625,20957.353515625,21014.75390625,21185.7890625,21294.59765625,-0.43798828125,0.884521484375,0.02392578125,0.0,-0.7934569716453552,0.1220703050494194,66.66667175292969,332.0,1.0,WarmUp
20814.9296875,20747.158203125,21173.18359375,21085.7421875,21024.587890625,21082.345703125,21253.0234375,21361.919921875,-0.440185546875,0.883544921875,0.02734375,-0.03051757626235485,-0.8544921278953552,-0.1831054538488388,66.66667175292969,333.0,1.0,WarmUp
20930.890625,20863.119140625,21289.142578125,21201.703125,21140.638671875,21198.75390625,21368.8046875,21478.060546875,-0.438232421875,0.8818359375,0.028076171875,-0.2136230319738388,-0.8544921278953552,-0.2136230319738388,66.66667175292969,334.0,1.0,WarmUp
21127.673828125,21059.904296875,21486.197265625,21398.845703125,21337.78125,21395.537109375,21565.5,21674.935546875,-0.439697265625,0.881591796875,0.0283203125,-0.2136230319738388,-0.8850097060203552,-0.2441406100988388,66.66667175292969,335.0,1.0,WarmUp
21338.048828125,21270.099609375,21696.75,21609.220703125,21548.513671875,21606.181640625,21776.322265625,21885.845703125,-0.43994140625,0.883056640625,0.031494140625,-0.1220703050494194,-0.8544921278953552,-0.3356933295726776,66.66667175292969,336.0,1.0,WarmUp
21467.8671875,21400.09765625,21826.658203125,21739.21875,21678.599609375,21736.357421875,21906.587890625,22015.93359375,-0.439697265625,0.88427734375,0.030029296875,-0.1525878757238388,-0.8239745497703552,-0.2136230319738388,66.66667175292969,337.0,1.0,WarmUp
21537.60546875,21469.74609375,21896.484375,21808.8671875,21748.337890625,21806.005859375,21976.326171875,22085.759765625,-0.438720703125,0.885986328125,0.02880859375,0.0610351525247097,-0.6713866591453552,-0.1220703050494194,66.66667175292969,338.0,1.0,WarmUp
21645.966796875,21577.927734375,22004.7578125,21917.048828125,21856.431640625,21914.544921875,22084.6875,22194.03125,-0.437255859375,0.885498046875,0.02783203125,0.0915527269244194,-0.6408690810203552,-0.03051757626235485,66.66667175292969,339.0,1.0,WarmUp
21839.353515625,21771.314453125,22198.501953125,22110.79296875,22050.0859375,22108.46875,22278.25390625,22387.59765625,-0.437744140625,0.88720703125,0.026611328125,0.03051757626235485,-0.7019042372703552,-0.0610351525247097,66.66667175292969,340.0,1.0,WarmUp
22048.74609375,21980.4375,22407.71484375,22319.828125,22259.4765625,22317.859375,22487.287109375,22596.98828125,-0.43896484375,0.88623046875,0.024658203125,-0.0915527269244194,-0.6713866591453552,-0.1831054538488388,66.66667175292969,341.0,1.0,WarmUp
22178.384765625,22110.16796875,22537.890625,22449.556640625,22389.564453125,22447.6796875,22617.015625,22726.896484375,-0.437255859375,0.88427734375,0.0244140625,-0.1220703050494194,-0.7934569716453552,-0.2441406100988388,66.66667175292969,342.0,1.0,WarmUp
22248.5703125,22180.3515625,22608.701171875,22519.919921875,22460.017578125,22518.310546875,22687.736328125,22797.439453125,-0.437255859375,0.883056640625,0.026123046875,-0.1525878757238388,-0.9155272841453552,-0.3356933295726776,66.66667175292969,343.0,1.0,WarmUp
22355.947265625,22287.73046875,22715.900390625,22627.296875,22567.126953125,22625.599609375,22795.025390625,22904.81640625,-0.437744140625,0.882568359375,0.02734375,0.03051757626235485,-0.9765624403953552,-0.3662109076976776,66.66667175292969,344.0,1.0,WarmUp
22546.02734375,22477.18359375,22905.7109375,22817.64453125,22757.384765625,22815.5,22984.568359375,23095.25390625,-0.438232421875,0.881103515625,0.026611328125,0.03051757626235485,-0.9765624403953552,-0.3662109076976776,66.66667175292969,345.0,1.0,WarmUp
22754.703125,22685.591796875,23114.4765625,23026.3203125,22966.330078125,23024.443359375,23193.51171875,23304.287109375,-0.439453125,0.8837890625,0.028076171875,0.0915527269244194,-0.8850097060203552,-0.2441406100988388,66.66667175292969,346.0,1.0,WarmUp
22884.1640625,22815.23046875,23244.384765625,23156.23046875,23096.05859375,23154.53125,23323.419921875,23433.927734375,-0.4404296875,0.883544921875,0.02880859375,0.0610351525247097,-0.7629393935203552,-0.2441406100988388,66.66667175292969,347.0,1.0,WarmUp
22951.041015625,22882.197265625,23311.171875,23223.462890625,23163.203125,23221.67578125,23390.296875,23500.982421875,-0.440185546875,0.8837890625,0.027099609375,0.1220703050494194,-0.7324218153953552,-0.2136230319738388,66.66667175292969,348.0,1.0,WarmUp
23055.9140625,22986.982421875,23416.224609375,23328.248046875,23268.255859375,23326.4609375,23495.349609375,23606.03515625,-0.440673828125,0.885498046875,0.0283203125,0.1831054538488388,-0.6713866591453552,-0.1831054538488388,66.66667175292969,349.0,1.0,WarmUp
23243.9375,23175.09375,23604.515625,23516.091796875,23456.279296875,23514.572265625,23683.283203125,23794.328125,-0.439453125,0.88623046875,0.0263671875,0.1525878757238388,-0.6408690810203552,-0.2136230319738388,66.66667175292969,350.0,1.0,WarmUp
23451.361328125,23382.072265625,23811.939453125,23723.6953125,23664.060546875,23722.533203125,23890.88671875,24001.83984375,-0.439208984375,0.8857421875,0.0244140625,0.0610351525247097,-0.8544921278953552,-0.2441406100988388,66.66667175292969,351.0,1.0,WarmUp
23579.66015625,23510.37109375,23940.41796875,23852.083984375,23792.181640625,23850.564453125,24019.0078125,24129.87109375,-0.437255859375,0.8837890625,0.025390625,-0.1220703050494194,-0.8239745497703552,-0.3051757514476776,66.66667175292969,352.0,1.0,WarmUp
23642.603515625,23573.3125,24002.9140625,23914.84765625,23855.03515625,23913.23828125,24081.771484375,24192.9921875,-0.439208984375,0.88330078125,0.027099609375,-0.0610351525247097,-0.7934569716453552,-0.3967284858226776,66.66667175292969,353.0,1.0,WarmUp
23749.892578125,23680.244140625,24110.0234375,24022.13671875,23962.591796875,24020.884765625,24189.328125,24300.638671875,-0.439697265625,0.881103515625,0.0263671875,-0.03051757626235485,-0.8544921278953552,-0.2441406100988388,66.66667175292969,354.0,1.0,WarmUp
23938.541015625,23868.625,24299.029296875,24210.875,24151.150390625,24209.533203125,24377.88671875,24488.9296875,-0.439453125,0.8818359375,0.029541015625,0.0,-0.7934569716453552,-0.2441406100988388,66.66667175292969,355.0,1.0,WarmUp
24143.998046875,24074.529296875,24504.84375,24416.599609375,24356.96484375,24415.705078125,24583.34375,24694.65625,-0.439697265625,0.88330078125,0.026611328125,-0.0915527269244194,-0.7934569716453552,-0.1831054538488388,66.66667175292969,356.0,1.0,WarmUp
24273.99609375,24204.52734375,24635.2890625,24546.865234375,24487.3203125,24545.8828125,24713.51953125,24825.369140625,-0.43994140625,0.884033203125,0.025146484375,-0.03051757626235485,-0.8544921278953552,-0.0915527269244194,66.66667175292969,357.0,1.0,WarmUp
24337.921875,24268.2734375,24699.39453125,24610.880859375,24551.24609375,24609.986328125,24777.53515625,24889.5625,-0.44091796875,0.885986328125,0.028564453125,0.0,-0.8850097060203552,-0.1220703050494194,66.66667175292969,358.0,1.0,WarmUp
24438.861328125,24369.302734375,24800.24609375,24711.732421875,24652.27734375,24711.28515625,24878.56640625,24990.4140625,-0.44140625,0.886962890625,0.029296875,0.0,-0.8544921278953552,-0.1220703050494194,66.66667175292969,359.0,1.0,WarmUp
24623.666015625,24554.107421875,24985.228515625,24896.537109375,24837.4375,24896.357421875,25063.81640625,25175.396484375,-0.44091796875,0.88623046875,0.029541015625,0.0610351525247097,-0.8544921278953552,0.0,66.66667175292969,360.0,1.0,WarmUp
24831.716796875,24761.80078125,25193.3671875,25104.765625,25045.48828125,25104.67578125,25271.599609375,25383.8046875,-0.441162109375,0.884521484375,0.026611328125,0.0,-0.8850097060203552,0.03051757626235485,66.66667175292969,361.0,1.0,WarmUp
24962.25,24892.06640625,25323.72265625,25235.388671875,25176.0234375,25234.8515625,25401.775390625,25513.98046875,-0.439208984375,0.882568359375,0.026611328125,-0.03051757626235485,-0.8544921278953552,0.03051757626235485,66.66667175292969,362.0,1.0,WarmUp
25027.16015625,24956.349609375,25388.54296875,25299.8515625,25240.75390625,25299.13671875,25466.1484375,25578.533203125,-0.440673828125,0.882080078125,0.0263671875,-0.0915527269244194,-0.8544921278953552,0.0,66.66667175292969,363.0,1.0,WarmUp
25124.8828125,25054.33984375,25486.443359375,25397.3046875,25338.744140625,25397.3046875,25563.87109375,25676.61328125,-0.44189453125,0.880859375,0.027587890625,-0.2136230319738388,-0.9155272841453552,-0.03051757626235485,66.66667175292969,364.0,1.0,WarmUp
25307.361328125,25236.908203125,25669.1015625,25580.052734375,25521.1328125,25580.142578125,25746.259765625,25859.71875,-0.4404296875,0.881591796875,0.030029296875,-0.1831054538488388,-0.9460448622703552,0.03051757626235485,66.66667175292969,365.0,1.0,WarmUp
25511.208984375,25440.48828125,25872.50390625,25783.54296875,25724.892578125,25783.900390625,25949.83984375,26063.38671875,-0.4404296875,0.88232421875,0.0302734375,-0.1525878757238388,-1.0070799589157104,0.1220703050494194,66.66667175292969,366.0,1.0,WarmUp
25638.615234375,25567.8046875,26000.265625,25911.306640625,25852.654296875,25911.6640625,26077.603515625,26191.23828125,-0.439208984375,0.885986328125,0.03173828125,-0.1831054538488388,-0.9155272841453552,0.1831054538488388,66.66667175292969,367.0,1.0,WarmUp
25700.037109375,25629.2265625,26062.044921875,25972.818359375,25914.078125,25973.0859375,26139.3828125,26252.83984375,-0.4384765625,0.886962890625,0.0283203125,-0.0915527269244194,-0.7934569716453552,0.1525878757238388,66.66667175292969,368.0,1.0,WarmUp
25796.060546875,25725.25,26158.158203125,26068.751953125,26010.369140625,26069.466796875,26235.673828125,26348.86328125,-0.43896484375,0.8857421875,0.026123046875,0.0,-0.6103515028953552,0.1525878757238388,66.66667175292969,369.0,1.0,WarmUp
25974.875,25903.884765625,26337.0625,26247.923828125,26189.361328125,26248.458984375,26414.48828125,26527.767578125,-0.439697265625,0.8837890625,0.02587890625,0.0,-0.6408690810203552,0.2136230319738388,66.66667175292969,370.0,1.0,WarmUp
26176.93359375,26106.302734375,26539.2109375,26450.072265625,26391.689453125,26450.697265625,26616.279296875,26729.916015625,-0.439453125,0.883544921875,0.02734375,-0.0915527269244194,-0.8239745497703552,0.0915527269244194,66.66667175292969,371.0,1.0,WarmUp
26302.4609375,26231.650390625,26664.6484375,26575.599609375,26517.306640625,26576.494140625,26741.5390625,26855.7109375,-0.439453125,0.88427734375,0.0263671875,-0.2441406100988388,-0.8850097060203552,0.0915527269244194,66.66667175292969,372.0,1.0,WarmUp
26364.599609375,26293.7890625,26727.412109375,26637.826171875,26579.712890625,26638.720703125,26804.212890625,26918.02734375,-0.439453125,0.88623046875,0.025634765625,-0.3967284858226776,-1.0375975370407104,0.0915527269244194,66.66667175292969,373.0,1.0,WarmUp
26457.4921875,26386.4140625,26820.57421875,26730.36328125,26672.60546875,26731.8828125,26897.107421875,27011.01171875,-0.43896484375,0.88525390625,0.027099609375,-0.1831054538488388,-1.0375975370407104,-0.03051757626235485,66.66667175292969,374.0,1.0,WarmUp
26632.552734375,26561.384765625,26995.365234375,26905.779296875,26847.6640625,26906.763671875,27071.71875,27186.0703125,-0.440185546875,0.8818359375,0.02734375,-0.0915527269244194,-0.8850097060203552,0.0915527269244194,66.66667175292969,375.0,1.0,WarmUp
26833.5390625,26762.548828125,27196.173828125,27106.9453125,27049.099609375,27108.107421875,27273.15234375,27387.50390625,-0.439697265625,0.883544921875,0.02490234375,0.03051757626235485,-0.7629393935203552,-0.03051757626235485,66.66667175292969,376.0,1.0,WarmUp
26962.375,26891.294921875,27325.27734375,27236.228515625,27178.0234375,27237.30078125,27402.16796875,27516.51953125,-0.43603515625,0.884521484375,0.02587890625,0.0915527269244194,-0.6713866591453552,-0.0610351525247097,66.66667175292969,377.0,1.0,WarmUp
27023.529296875,26952.361328125,27386.521484375,27297.203125,27239.177734375,27298.275390625,27463.142578125,27577.673828125,-0.436767578125,0.885498046875,0.02490234375,0.0610351525247097,-0.7019042372703552,-0.1525878757238388,66.66667175292969,378.0,1.0,WarmUp
27114.365234375,27043.197265625,27477.626953125,27387.951171875,27329.8359375,27389.29296875,27553.80078125,27668.689453125,-0.43798828125,0.885498046875,0.02685546875,-0.03051757626235485,-0.8544921278953552,-0.1220703050494194,66.66667175292969,379.0,1.0,WarmUp
27289.513671875,27218.16796875,27652.953125,27563.099609375,27505.34375,27564.798828125,27728.94921875,27844.015625,-0.43701171875,0.885009765625,0.024658203125,-0.03051757626235485,-0.9460448622703552,-0.1831054538488388,66.66667175292969,380.0,1.0,WarmUp
27488.4453125,27417.27734375,27851.974609375,27762.119140625,27704.810546875,27764.17578125,27928.328125,28043.3046875,-0.437255859375,0.8828125,0.028564453125,-0.1831054538488388,-1.0070799589157104,-0.3356933295726776,66.66667175292969,381.0,1.0,WarmUp
27615.224609375,27544.056640625,27978.6640625,27888.720703125,27831.587890625,27890.865234375,28055.375,28170.173828125,-0.43798828125,0.8837890625,0.02734375,-0.2136230319738388,-0.9765624403953552,-0.1525878757238388,66.66667175292969,382.0,1.0,WarmUp
27674.412109375,27603.064453125,28037.8515625,27948.17578125,27890.59765625,27949.962890625,28114.29296875,28229.71875,-0.43896484375,0.88232421875,0.028564453125,0.03051757626235485,-0.9155272841453552,-0.2746581733226776,66.66667175292969,383.0,1.0,WarmUp
27764.623046875,27693.275390625,28128.15234375,28038.38671875,27981.166015625,28040.353515625,28204.595703125,28319.75,-0.439208984375,0.881103515625,0.028076171875,0.0915527269244194,-0.7934569716453552,-0.2441406100988388,66.66667175292969,384.0,1.0,WarmUp
27938.33984375,27867.171875,28301.958984375,28212.283203125,28155.421875,28214.33984375,28378.3125,28493.6484375,-0.43798828125,0.8818359375,0.0263671875,0.1525878757238388,-0.8239745497703552,-0.2746581733226776,66.66667175292969,385.0,1.0,WarmUp
28137.44921875,28065.8359375,28501.248046875,28411.21484375,28354.171875,28413.62890625,28577.33203125,28692.66796875,-0.439208984375,0.8828125,0.026611328125,0.0915527269244194,-0.8544921278953552,-0.2746581733226776,66.66667175292969,386.0,1.0,WarmUp
28262.798828125,28190.916015625,28627.04296875,28536.384765625,28479.521484375,28539.06640625,28702.501953125,28818.1953125,-0.44091796875,0.88330078125,0.025146484375,0.0915527269244194,-0.8239745497703552,-0.3356933295726776,66.66667175292969,387.0,1.0,WarmUp
28320.197265625,28248.314453125,28684.53125,28594.05078125,28536.7421875,28596.64453125,28759.6328125,28875.50390625,-0.439453125,0.884765625,0.026123046875,0.0915527269244194,-0.8239745497703552,-0.3356933295726776,66.66667175292969,388.0,1.0,WarmUp
28414.25390625,28342.638671875,28778.3203125,28687.9296875,28630.708984375,28691.05859375,28853.95703125,28969.740234375,-0.43896484375,0.886962890625,0.021484375,0.0610351525247097,-0.8544921278953552,-0.3051757514476776,66.66667175292969,389.0,1.0,WarmUp
28584.396484375,28512.869140625,28948.908203125,28858.337890625,28801.38671875,28861.37890625,29024.3671875,29140.41796875,-0.439208984375,0.8857421875,0.0234375,0.03051757626235485,-0.8850097060203552,-0.3356933295726776,66.66667175292969,390.0,1.0,WarmUp
28781.806640625,28709.923828125,29146.318359375,29055.66015625,28998.88671875,29058.87890625,29222.046875,29338.095703125,-0.439208984375,0.885986328125,0.027587890625,-0.03051757626235485,-0.7324218153953552,-0.1831054538488388,66.66667175292969,391.0,1.0,WarmUp
28908.048828125,28836.076171875,29272.740234375,29181.8125,29125.0390625,29184.94140625,29348.021484375,29463.982421875,-0.43994140625,0.884033203125,0.027099609375,0.0,-0.7324218153953552,-0.1220703050494194,66.66667175292969,392.0,1.0,WarmUp
28966.431640625,28894.458984375,29331.123046875,29240.732421875,29183.421875,29243.59375,29406.314453125,29522.54296875,-0.44140625,0.88330078125,0.028564453125,0.03051757626235485,-0.7019042372703552,-0.2441406100988388,66.66667175292969,393.0,1.0,WarmUp
29054.05078125,28982.16796875,29418.830078125,29328.619140625,29271.30859375,29331.123046875,29493.93359375,29610.33984375,-0.440673828125,0.8857421875,0.024658203125,0.03051757626235485,-0.8239745497703552,-0.1525878757238388,66.66667175292969,394.0,1.0,WarmUp
29222.134765625,29149.89453125,29586.73828125,29496.2578125,29439.037109375,29499.296875,29661.5703125,29778.42578125,-0.4404296875,0.885498046875,0.024658203125,0.1220703050494194,-0.8239745497703552,-0.3051757514476776,66.66667175292969,395.0,1.0,WarmUp
29417.7578125,29345.78515625,29782.44921875,29692.1484375,29635.107421875,29695.27734375,29857.373046875,29974.138671875,-0.43798828125,0.881591796875,0.027099609375,0.0,-0.9460448622703552,-0.3967284858226776,66.66667175292969,396.0,1.0,WarmUp
29544.359375,29472.654296875,29909.49609375,29818.927734375,29762.33203125,29822.234375,29984.330078125,30101.185546875,-0.4384765625,0.883056640625,0.028564453125,-0.0610351525247097,-0.9765624403953552,-0.3356933295726776,66.66667175292969,397.0,1.0,WarmUp
29603.634765625,29531.572265625,29968.416015625,29877.935546875,29821.162109375,29881.064453125,30043.25,30160.193359375,-0.440185546875,0.8837890625,0.028076171875,-0.0610351525247097,-0.8544921278953552,-0.3051757514476776,66.66667175292969,398.0,1.0,WarmUp
29689.01953125,29616.77734375,30054.068359375,29963.23046875,29906.27734375,29966.984375,30128.6328125,30245.3984375,-0.4375,0.883544921875,0.02587890625,0.0,-0.8544921278953552,-0.3356933295726776,66.66667175292969,399.0,1.0,WarmUp
29855.494140625,29783.43359375,30220.54296875,30129.705078125,30072.931640625,30133.818359375,30295.19921875,30412.58984375,-0.438232421875,0.88427734375,0.026123046875,0.03051757626235485,-0.8239745497703552,-0.3051757514476776,66.66667175292969,400.0,1.0,WarmUp
30050.669921875,29978.4296875,30415.71875,30324.703125,30268.5546875,30328.994140625,30490.015625,30607.5859375,-0.43896484375,0.8837890625,0.0283203125,0.0,-0.7629393935203552,-0.3051757514476776,66.66667175292969,401.0,1.0,WarmUp
30178.25390625,30106.1015625,30543.302734375,30452.107421875,30396.228515625,30456.48828125,30617.509765625,30735.52734375,-0.439208984375,0.88427734375,0.027099609375,0.0,-0.7324218153953552,-0.2746581733226776,66.66667175292969,402.0,1.0,WarmUp
30237.083984375,30165.2890625,30602.580078125,30511.65234375,30455.236328125,30515.5859375,30676.966796875,30794.537109375,-0.43798828125,0.883544921875,0.02685546875,0.0610351525247097,-0.6103515028953552,-0.2136230319738388,66.66667175292969,403.0,1.0,WarmUp
30317.908203125,30245.755859375,30683.404296875,30592.65625,30536.5078125,30596.5,30758.05859375,30875.359375,-0.4375,0.8837890625,0.02490234375,0.0610351525247097,-0.7019042372703552,-0.2441406100988388,66.66667175292969,404.0,1.0,WarmUp
30483.935546875,30411.78515625,30849.341796875,30758.326171875,30702.537109375,30762.88671875,30923.283203125,31041.478515625,-0.438720703125,0.8828125,0.024658203125,0.03051757626235485,-0.7629393935203552,-0.1220703050494194,66.66667175292969,405.0,1.0,WarmUp
30678.6640625,30606.423828125,31044.25,30953.0546875,30897.265625,30957.525390625,31118.099609375,31236.384765625,-0.4384765625,0.88427734375,0.024169921875,-0.1525878757238388,-0.8239745497703552,-0.1220703050494194,66.66667175292969,406.0,1.0,WarmUp
30807.5,30735.080078125,31173.353515625,31082.158203125,31026.099609375,31086.44921875,31247.203125,31365.400390625,-0.4404296875,0.884033203125,0.02587890625,-0.1525878757238388,-0.8544921278953552,-0.0610351525247097,66.66667175292969,407.0,1.0,WarmUp
30864.900390625,30792.837890625,31231.111328125,31139.736328125,31083.58984375,31144.20703125,31304.87109375,31423.15625,-0.440185546875,0.882568359375,0.027587890625,-0.0610351525247097,-0.8850097060203552,-0.03051757626235485,66.66667175292969,408.0,1.0,WarmUp
30944.29296875,30872.140625,31310.4140625,31218.951171875,31163.25,31223.689453125,31384.353515625,31502.4609375,-0.439453125,0.884033203125,0.02880859375,-0.0915527269244194,-0.7629393935203552,-0.0610351525247097,66.66667175292969,409.0,1.0,WarmUp
31108.802734375,31036.203125,31475.013671875,31383.28125,31327.4921875,31387.9296875,31548.86328125,31667.1484375,-0.439453125,0.885009765625,0.02734375,-0.0610351525247097,-0.7629393935203552,0.0610351525247097,66.66667175292969,410.0,1.0,WarmUp
31304.333984375,31231.46875,31670.099609375,31578.45703125,31523.203125,31583.462890625,31743.681640625,31862.32421875,-0.438720703125,0.88427734375,0.02783203125,-0.03051757626235485,-0.8239745497703552,0.0610351525247097,66.66667175292969,411.0,1.0,WarmUp
31432.634765625,31360.125,31798.845703125,31706.93359375,31651.94921875,31712.388671875,31872.515625,31991.427734375,-0.43994140625,0.885986328125,0.025390625,-0.03051757626235485,-0.8850097060203552,0.1220703050494194,66.66667175292969,412.0,1.0,WarmUp
31490.123046875,31417.79296875,31856.78125,31764.958984375,31709.6171875,31769.876953125,31930.2734375,32049.18359375,-0.4404296875,0.884765625,0.0283203125,-0.0610351525247097,-0.8850097060203552,0.0,66.66667175292969,413.0,1.0,WarmUp
31570.41015625,31497.6328125,31936.7109375,31845.068359375,31789.63671875,31849.806640625,32010.203125,32128.935546875,-0.440185546875,0.88134765625,0.02880859375,-0.0915527269244194,-1.0070799589157104,-0.03051757626235485,66.66667175292969,414.0,1.0,WarmUp
31729.287109375,31656.419921875,32095.5859375,32003.498046875,31948.333984375,32008.68359375,32168.810546875,32287.54296875,-0.437744140625,0.883056640625,0.02880859375,-0.03051757626235485,-0.9155272841453552,-0.0915527269244194,66.66667175292969,415.0,1.0,WarmUp
31924.818359375,31852.04296875,32291.388671875,32199.388671875,32144.134765625,32204.6640625,32364.25390625,32483.703125,-0.4384765625,0.883056640625,0.029296875,0.0610351525247097,-0.9155272841453552,-0.1831054538488388,66.66667175292969,416.0,1.0,WarmUp
32053.4765625,31980.966796875,32420.22265625,32328.134765625,32273.05859375,32333.3203125,32492.912109375,32612.537109375,-0.437744140625,0.885986328125,0.0283203125,0.0915527269244194,-0.7629393935203552,-0.1831054538488388,66.66667175292969,417.0,1.0,WarmUp
32110.427734375,32038.09765625,32477.533203125,32385.265625,32330.279296875,32390.62890625,32550.04296875,32669.66796875,-0.4365234375,0.884765625,0.025146484375,0.03051757626235485,-0.7934569716453552,-0.2136230319738388,66.66667175292969,418.0,1.0,WarmUp
32187.765625,32115.255859375,32554.958984375,32462.87109375,32407.70703125,32468.4140625,32627.2890625,32747.36328125,-0.436767578125,0.883544921875,0.025390625,-0.03051757626235485,-0.8239745497703552,-0.2136230319738388,66.66667175292969,419.0,1.0,WarmUp
32345.92578125,32273.23828125,32713.2109375,32620.853515625,32565.8671875,32626.396484375,32785.00390625,32905.2578125,-0.438232421875,0.885009765625,0.028076171875,-0.03051757626235485,-0.8239745497703552,-0.2136230319738388,66.66667175292969,420.0,1.0,WarmUp
32539.134765625,32466.357421875,32906.6875,32813.97265625,32759.43359375,32819.78125,32978.66015625,33098.82421875,-0.438232421875,0.8857421875,0.02783203125,-0.03051757626235485,-0.8850097060203552,-0.1525878757238388,66.66667175292969,421.0,1.0,WarmUp
32666.271484375,32593.673828125,33033.734375,32941.109375,32886.5703125,32947.0078125,33105.70703125,33226.31640625,-0.44091796875,0.885986328125,0.028564453125,-0.03051757626235485,-0.7934569716453552,-0.1220703050494194,66.66667175292969,422.0,1.0,WarmUp
32719.46875,32646.869140625,33087.19921875,32994.39453125,32940.03515625,33000.4765625,33158.90234375,33279.3359375,-0.440185546875,0.8837890625,0.029052734375,-0.03051757626235485,-0.7324218153953552,-0.1220703050494194,66.66667175292969,423.0,1.0,WarmUp
32800.29296875,32728.05078125,33168.46875,33075.48828125,33020.94921875,33081.65625,33240.265625,33360.515625,-0.439208984375,0.884521484375,0.026123046875,0.03051757626235485,-0.7019042372703552,-0.1220703050494194,66.66667175292969,424.0,1.0,WarmUp
32958.453125,32886.03515625,33326.36328125,33233.73828125,33179.19921875,33239.63671875,33398.24609375,33519.21484375,-0.438720703125,0.8837890625,0.025390625,0.0610351525247097,-0.8239745497703552,-0.1220703050494194,66.66667175292969,425.0,1.0,WarmUp
33150.9453125,33078.2578125,33519.03515625,33426.23046875,33371.9609375,33432.22265625,33590.91796875,33711.9765625,-0.4375,0.884521484375,0.027587890625,0.0,-0.8544921278953552,-0.1525878757238388,66.66667175292969,426.0,1.0,WarmUp
33279.42578125,33206.55859375,33647.421875,33554.62109375,33500.6171875,33560.609375,33719.21875,33840.36328125,-0.438232421875,0.883544921875,0.0234375,-0.1220703050494194,-0.8544921278953552,-0.1525878757238388,66.66667175292969,427.0,1.0,WarmUp
33335.75,33263.0625,33704.01953125,33610.67578125,33556.765625,33617.3828125,33775.1875,33896.78125,-0.439208984375,0.88525390625,0.025390625,-0.0915527269244194,-0.8544921278953552,-0.0915527269244194,66.66667175292969,428.0,1.0,WarmUp
33408.9765625,33336.2890625,33777.15234375,33683.72265625,33629.72265625,33690.51953125,33848.5,33970.18359375,-0.4384765625,0.88671875,0.028564453125,-0.0915527269244194,-0.8544921278953552,-0.0610351525247097,66.66667175292969,429.0,1.0,WarmUp
33563.6484375,33490.69140625,33931.55859375,33838.3984375,33784.57421875,33844.921875,34003.0859375,34124.85546875,-0.43798828125,0.886962890625,0.0302734375,-0.03051757626235485,-0.8544921278953552,-0.0915527269244194,66.66667175292969,430.0,1.0,WarmUp
33755.3359375,33682.11328125,34123.60546875,34029.99609375,33976.3515625,34036.96875,34194.953125,34316.546875,-0.439208984375,0.886474609375,0.03076171875,0.0,-0.7934569716453552,-0.0610351525247097,66.66667175292969,431.0,1.0,WarmUp
33884.7109375,33812.0234375,34253.24609375,34159.546875,34106.08203125,34166.33984375,34324.0546875,34446.1875,-0.438232421875,0.88525390625,0.0283203125,0.03051757626235485,-0.7324218153953552,-0.0610351525247097,66.66667175292969,432.0,1.0,WarmUp
33940.9453125,33868.2578125,34309.5703125,34215.9609375,34162.49609375,34223.02734375,34380.29296875,34502.2421875,-0.439208984375,0.8828125,0.027587890625,-0.03051757626235485,-0.7629393935203552,0.03051757626235485,66.66667175292969,433.0,1.0,WarmUp
34011.1328125,33937.81640625,34379.30859375,34285.87890625,34232.0546875,34292.8515625,34450.56640625,34572.25,-0.439208984375,0.883544921875,0.031494140625,-0.1220703050494194,-0.8239745497703552,0.0,66.66667175292969,434.0,1.0,WarmUp
34162.3203125,34089.00390625,34530.765625,34437.15625,34383.51171875,34444.30859375,34601.93359375,34723.97265625,-0.438720703125,0.88427734375,0.028076171875,-0.1220703050494194,-0.9460448622703552,0.0,66.66667175292969,435.0,1.0,WarmUp
34353.29296875,34279.62109375,34721.91796875,34627.68359375,34574.57421875,34635.28125,34792.63671875,34914.85546875,-0.438232421875,0.883544921875,0.02587890625,-0.1220703050494194,-0.9460448622703552,0.0610351525247097,66.66667175292969,436.0,1.0,WarmUp
34482.12890625,34408.8125,34850.9296875,34756.875,34703.85546875,34764.38671875,34921.83203125,35043.87109375,-0.436279296875,0.88525390625,0.026123046875,-0.1831054538488388,-0.8239745497703552,0.03051757626235485,66.66667175292969,437.0,1.0,WarmUp
34534.25,34461.296875,34903.50390625,34809.35546875,34756.33984375,34816.6875,34974.1328125,35096.62109375,-0.439208984375,0.88720703125,0.029541015625,-0.03051757626235485,-0.7629393935203552,0.0,66.66667175292969,438.0,1.0,WarmUp
34607.56640625,34534.69921875,34976.7265625,34882.671875,34829.29296875,34890.0,35047.26953125,35169.93359375,-0.4375,0.885498046875,0.026611328125,0.0,-0.6713866591453552,0.0610351525247097,66.66667175292969,439.0,1.0,WarmUp
