EEG 1,EEG 2,EEG 3,EEG 4,EEG 5,EEG 6,EEG 7,EEG 8,Accelerometer X,Accelerometer Y,Accelerometer Z,Gyroscope X,Gyroscope Y,Gyroscope Z,Battery Level,Counter,Validation Indicator,State
-16835.69140625,239693.328125,149936.046875,209935.28125,-144592.375,82410.796875,88888.9609375,260758.953125,-0.274169921875,0.92919921875,0.13134765625,0.0,0.0,0.0,60.0,1.0,1.0,WarmUp
22537.98046875,3900.290283203125,2403.796142578125,-2308.845947265625,-12110.98046875,3045.380615234375,-9369.583984375,5559.86279296875,-0.286376953125,0.951904296875,0.119873046875,0.0,0.0,0.0,60.0,2.0,1.0,WarmUp
165.40292358398438,201.79156494140625,198.3940887451172,-20350.548828125,-31708.275390625,-18.686059951782227,0.0,4290.64111328125,-0.284912109375,0.95849609375,0.109375,0.0,0.0,0.0,60.0,3.0,1.0,WarmUp
-3767.69970703125,363.3499755859375,-430.40521240234375,-8140.2373046875,-8505.3759765625,0.0,0.0,1193.8514404296875,-0.285400390625,0.96142578125,0.09912109375,0.0,0.0,0.0,60.0,4.0,1.0,WarmUp
-3725.767822265625,-618.7857055664062,-2369.284912109375,-231.74290466308594,-1043.9158935546875,0.0,-665.9031982421875,-1354.24755859375,-0.28125,0.961669921875,0.100830078125,0.0,0.0,0.0,60.0,5.0,1.0,WarmUp
-3050.7451171875,-972.83740234375,-2696.335693359375,10.818244934082031,-1266.628662109375,6.705523490905762,-11478.962890625,-913.8287353515625,-0.27490234375,0.9560546875,0.107666015625,0.0,0.0,0.0,60.0,6.0,1.0,WarmUp
-1642.048583984375,-424.146728515625,-1974.4637451171875,458.031982421875,-1331.44873046875,144.03465270996094,-23879.80078125,-199.55638122558594,-0.273681640625,0.94921875,0.11279296875,-13.610838890075684,-8.575438499450684,12.145995140075684,60.0,7.0,1.0,WarmUp
2281.30859375,353.2469787597656,-1414.060791015625,2171.606201171875,-1134.0382080078125,1106.2325439453125,-6002.337890625,3763.408203125,-0.275634765625,0.9462890625,0.12548828125,-18.157957077026367,-9.887694358825684,32.012935638427734,60.0,8.0,1.0,WarmUp
2864.51025390625,1124.3822021484375,-1542.44921875,784.5462646484375,-1153.7076416015625,2492.666748046875,-1631.856201171875,18281.671875,-0.270263671875,0.947265625,0.13623046875,-19.653318405151367,-10.040282249450684,39.276119232177734,60.0,9.0,1.0,WarmUp
-927.3292236328125,-81.71797943115234,-1117.319091796875,-1275.032958984375,-1198.0535888671875,-432.3721618652344,-1333.05810546875,4528.4638671875,-0.25537109375,0.94287109375,0.13623046875,-19.561765670776367,-10.040282249450684,42.236324310302734,60.0,10.0,1.0,WarmUp
-994.7420654296875,-861.0786743164062,-919.2825927734375,-1090.76513671875,-734.1207275390625,-787.4072875976562,-1155.2276611328125,-880.0328979492188,-0.24560546875,0.9365234375,0.13134765625,-19.775388717651367,-9.704588890075684,43.243404388427734,60.0,11.0,1.0,WarmUp
-696.9274291992188,-703.1859130859375,-684.2316284179688,-757.4559326171875,-446.49847412109375,-408.6793212890625,-1040.4290771484375,-253.55819702148438,-0.23828125,0.937744140625,0.12939453125,-19.927976608276367,-9.887694358825684,43.212886810302734,60.0,12.0,1.0,WarmUp
-621.2891235351562,-619.947998046875,-672.429931640625,-692.7252807617188,-365.2275085449219,-210.64285278320312,-1063.6748046875,-36.56745529174805,-0.2392578125,0.942138671875,0.123779296875,-20.172117233276367,-10.314940452575684,42.419429779052734,60.0,13.0,1.0,WarmUp
-596.9703979492188,-674.8438720703125,-757.4559326171875,-793.1293334960938,-367.6415100097656,-114.44093322753906,-1214.6832275390625,12.60638427734375,-0.237548828125,0.949951171875,0.124755859375,-20.629880905151367,-10.711668968200684,41.809078216552734,60.0,14.0,1.0,WarmUp
-497.6392517089844,-722.497802734375,-628.6204833984375,-886.2020263671875,-304.96722412109375,-62.04844665527344,-1102.119873046875,36.2098274230957,-0.232177734375,0.95166015625,0.140380859375,-20.782468795776367,-10.681151390075684,41.320796966552734,60.0,15.0,1.0,WarmUp
-540.64404296875,-574.7974853515625,-373.00592041015625,-538.4088745117188,-209.1229248046875,-5.990267753601074,-894.6062622070312,55.789955139160156,-0.23046875,0.950439453125,0.14990234375,-20.111082077026367,-9.948729515075684,41.046138763427734,60.0,16.0,1.0,WarmUp
-434.0708923339844,-471.08538818359375,-274.1217956542969,-387.2216491699219,-206.08309936523438,-88.06587982177734,-615.4776611328125,4.559756278991699,-0.230712890625,0.947998046875,0.14697265625,-19.226072311401367,-9.552000999450684,40.801998138427734,60.0,17.0,1.0,WarmUp
-214.93438720703125,-349.67071533203125,-159.77027893066406,-301.4803466796875,-174.7906494140625,-215.82846069335938,-286.1917419433594,-36.656864166259766,-0.22705078125,0.947265625,0.14599609375,-18.829343795776367,-9.429930686950684,40.527339935302734,60.0,18.0,1.0,WarmUp
-215.5602264404297,-277.519287109375,-107.82482147216797,-245.15394592285156,-184.4466094970703,-267.77392578125,-198.6623077392578,-127.13672637939453,-0.2216796875,0.943359375,0.142578125,-18.707273483276367,-9.674071311950684,39.764400482177734,60.0,19.0,1.0,WarmUp
-207.4241943359375,-259.5484619140625,-97.09598541259766,-233.08399963378906,-177.91989135742188,-241.48826599121094,-215.3814239501953,-147.2532958984375,-0.21435546875,0.943603515625,0.139892578125,-18.981931686401367,-10.284422874450684,38.757320404052734,60.0,20.0,1.0,WarmUp
-192.31442260742188,-247.1208953857422,-93.96673583984375,-224.67974853515625,-168.4427490234375,-212.69920349121094,-209.748779296875,-138.1337890625,-0.209228515625,0.947021484375,0.141845703125,-19.104001998901367,-10.742186546325684,37.750240325927734,60.0,21.0,1.0,WarmUp
-186.2347412109375,-239.9683380126953,-90.65867614746094,-217.79541015625,-165.0452880859375,-206.97715759277344,-203.0432586669922,-134.4680938720703,-0.209228515625,0.95458984375,0.149169921875,-18.859861373901367,-10.437010765075684,36.773677825927734,60.0,22.0,1.0,WarmUp
-180.78091430664062,-233.70985412597656,-87.79765319824219,-210.91107177734375,-161.55841064453125,-201.7021484375,-197.41061401367188,-131.33885192871094,-0.21142578125,0.9560546875,0.152099609375,-18.127439498901367,-9.521483421325684,35.919185638427734,60.0,23.0,1.0,WarmUp
-175.95294189453125,-227.6301727294922,-85.29425811767578,-204.7419891357422,-158.25035095214844,-196.60595703125,-192.76145935058594,-128.65664672851562,-0.2119140625,0.95458984375,0.15185546875,-17.395017623901367,-8.911131858825684,35.308834075927734,60.0,24.0,1.0,WarmUp
-172.28726196289062,-222.35516357421875,-83.14849090576172,-200.00341796875,-155.83636474609375,-192.5826416015625,-188.38050842285156,-126.42147064208984,-0.214599609375,0.952392578125,0.1513671875,-16.876218795776367,-8.728026390075684,34.759517669677734,60.0,25.0,1.0,WarmUp
-169.33682250976562,-217.61659240722656,-81.1815414428711,-195.44366455078125,-153.6905975341797,-188.38050842285156,-184.26779174804688,-124.3651123046875,-0.213134765625,0.958740234375,0.149658203125,-16.845701217651367,-9.216307640075684,34.301753997802734,60.0,26.0,1.0,WarmUp
-165.93936157226562,-212.52040100097656,-79.66162109375,-190.9733123779297,-151.54483032226562,-184.26779174804688,-180.6020965576172,-122.39815521240234,-0.206298828125,0.95751953125,0.1513671875,-16.967771530151367,-9.429930686950684,33.660884857177734,60.0,27.0,1.0,WarmUp
-162.81011962890625,-207.9606475830078,-77.87348175048828,-186.77117919921875,-149.2202606201172,-180.78091430664062,-176.84701538085938,-121.23587036132812,-0.20458984375,0.950927734375,0.15625,-17.028806686401367,-9.155272483825684,33.172603607177734,60.0,28.0,1.0,WarmUp
-159.85968017578125,-204.20555114746094,-76.4429702758789,-183.37371826171875,-146.98507690429688,-177.38345336914062,-173.36013793945312,-120.1629867553711,-0.20361328125,0.949951171875,0.157470703125,-16.723630905151367,-8.789061546325684,32.958980560302734,60.0,29.0,1.0,WarmUp
-156.9986572265625,-200.45045471191406,-75.54889678955078,-180.06565856933594,-144.8393096923828,-174.4330291748047,-170.23089599609375,-118.64306640625,-0.201171875,0.95263671875,0.159423828125,-16.479490280151367,-8.575438499450684,32.714839935302734,60.0,30.0,1.0,WarmUp
-154.9423065185547,-196.87417602539062,-74.47601318359375,-176.75759887695312,-143.31939697265625,-171.7508087158203,-167.369873046875,-117.39136505126953,-0.201904296875,0.95458984375,0.15869140625,-16.387937545776367,-8.697508811950684,32.501216888427734,60.0,31.0,1.0,WarmUp
-152.43890380859375,-193.20848083496094,-73.40312957763672,-173.7177734375,-141.4418487548828,-169.1580047607422,-165.0452880859375,-116.58670806884766,-0.198974609375,0.955322265625,0.1591796875,-16.418455123901367,-9.033202171325684,32.470699310302734,60.0,32.0,1.0,Rest
-150.2931365966797,-190.1686553955078,-72.77728271484375,-171.4825897216797,-139.83251953125,-166.6546173095703,-162.720703125,-115.4244155883789,-0.196044921875,0.95263671875,0.161376953125,-16.418455123901367,-8.880614280700684,32.470699310302734,60.0,33.0,1.0,Rest
-148.2367706298828,-187.2182159423828,-72.2408447265625,-168.88978576660156,-138.4914093017578,-164.50885009765625,-160.3067169189453,-114.6197509765625,-0.194091796875,0.951416015625,0.165771484375,-16.357419967651367,-8.453368186950684,32.684322357177734,60.0,34.0,1.0,Rest
-146.2698211669922,-184.35719299316406,-71.4361801147461,-166.83343505859375,-137.1503143310547,-162.3630828857422,-158.3397674560547,-113.99390411376953,-0.194580078125,0.95263671875,0.16455078125,-16.082761764526367,-7.995604991912842,32.897945404052734,60.0,35.0,1.0,Rest
-144.5710906982422,-181.76438903808594,-70.7209243774414,-164.77706909179688,-135.8092041015625,-160.39613342285156,-156.10458374023438,-113.18923950195312,-0.1923828125,0.959716796875,0.165771484375,-15.960692405700684,-7.873534679412842,33.172603607177734,60.0,36.0,1.0,Rest
-143.22998046875,-179.4398193359375,-70.27388763427734,-162.89952087402344,-134.4680938720703,-158.6973876953125,-154.40585327148438,-112.47398376464844,-0.190185546875,0.960205078125,0.1630859375,-16.204832077026367,-7.965087413787842,33.386226654052734,60.0,37.0,1.0,Rest
-141.62066650390625,-177.02581787109375,-70.27388763427734,-160.57493591308594,-133.21640014648438,-156.81983947753906,-152.79653930664062,-111.84813690185547,-0.190185546875,0.961181640625,0.16455078125,-16.479490280151367,-8.209227561950684,33.691402435302734,60.0,38.0,1.0,Rest
-140.01133728027344,-174.8800506591797,-70.00566864013672,-158.6079864501953,-132.14352416992188,-155.2999267578125,-151.1872100830078,-111.13288116455078,-0.184814453125,0.965087890625,0.1669921875,-16.632078170776367,-8.300780296325684,34.088130950927734,60.0,39.0,1.0,Rest
-138.58082580566406,-173.0919189453125,-69.46922302246094,-157.26687622070312,-131.33885192871094,-153.6905975341797,-149.30966186523438,-110.596435546875,-0.178466796875,0.962890625,0.165283203125,-16.540525436401367,-8.239745140075684,34.179683685302734,60.0,40.0,1.0,Rest
-137.32913208007812,-171.12496948242188,-69.20100402832031,-156.2834014892578,-130.1765594482422,-151.9918670654297,-148.05796813964844,-109.88117980957031,-0.17333984375,0.96240234375,0.167724609375,-16.296384811401367,-7.812499523162842,34.179683685302734,60.0,41.0,1.0,Rest
-136.07742309570312,-169.1580047607422,-68.93278503417969,-154.76348876953125,-129.1036834716797,-150.65077209472656,-146.5380401611328,-109.43414306640625,-0.16796875,0.96240234375,0.1689453125,-15.991209983825684,-7.751464366912842,34.057613372802734,60.0,42.0,1.0,Rest
-135.00454711914062,-167.63809204101562,-68.48574829101562,-153.15415954589844,-128.2990264892578,-149.39906311035156,-145.1969451904297,-108.80829620361328,-0.164306640625,0.963134765625,0.16845703125,-15.777586936950684,-7.781981945037842,33.691402435302734,60.0,43.0,1.0,Rest
-134.0210723876953,-166.0287628173828,-68.03871154785156,-151.63424682617188,-127.31554412841797,-148.05796813964844,-144.03465270996094,-108.27185821533203,-0.1611328125,0.964599609375,0.1689453125,-15.808104515075684,-8.087157249450684,33.416744232177734,60.0,44.0,1.0,Rest
-132.67996215820312,-164.41943359375,-67.85990142822266,-150.38253784179688,-126.42147064208984,-146.5380401611328,-142.69354248046875,-108.36125946044922,-0.154052734375,0.964599609375,0.173828125,-15.808104515075684,-8.239745140075684,32.775875091552734,60.0,45.0,1.0,Rest
-131.60707092285156,-162.720703125,-67.77049255371094,-149.2202606201172,-125.70621490478516,-145.6439666748047,-141.71006774902344,-107.64600372314453,-0.151611328125,0.9619140625,0.173583984375,-15.777586936950684,-8.331297874450684,32.104488372802734,60.0,46.0,1.0,Rest
-130.7130126953125,-161.37960815429688,-67.68108367919922,-148.14736938476562,-124.90155029296875,-144.66049194335938,-140.8159942626953,-106.93074798583984,-0.147705078125,0.96142578125,0.179443359375,-15.777586936950684,-8.270262718200684,31.341550827026367,60.0,47.0,1.0,Rest
-129.9977569580078,-160.21731567382812,-67.23404693603516,-147.34271240234375,-124.45452117919922,-143.67701721191406,-139.7431182861328,-106.93074798583984,-0.148193359375,0.957763671875,0.189208984375,-15.350340843200684,-7.995604991912842,30.456541061401367,60.0,48.0,1.0,Rest
-129.1036834716797,-159.2338409423828,-67.14464569091797,-146.2698211669922,-123.64985656738281,-142.69354248046875,-138.7596435546875,-106.21549224853516,-0.14501953125,0.953857421875,0.189453125,-14.862059593200684,-7.904052257537842,29.663084030151367,60.0,49.0,1.0,Rest
-128.20960998535156,-158.16094970703125,-67.23404693603516,-145.10752868652344,-122.8451919555664,-141.79946899414062,-137.77615356445312,-105.76846313476562,-0.140869140625,0.950439453125,0.187744140625,-14.343260765075684,-7.965087413787842,28.686521530151367,60.0,50.0,1.0,Rest
-127.67317199707031,-156.81983947753906,-67.05523681640625,-144.12405395507812,-122.12993621826172,-140.99481201171875,-136.97149658203125,-105.58964538574219,-0.136962890625,0.950927734375,0.18603515625,-14.068602561950684,-7.934569835662842,27.740476608276367,60.0,51.0,1.0,Rest
-127.04732513427734,-155.83636474609375,-66.78701782226562,-143.58761596679688,-121.32527160644531,-140.10073852539062,-136.16683959960938,-105.23201751708984,-0.1376953125,0.948974609375,0.192138671875,-13.763426780700684,-7.781981945037842,26.519773483276367,60.0,52.0,1.0,Rest
-126.24266052246094,-154.76348876953125,-66.87641906738281,-142.60414123535156,-120.87824249267578,-139.56430053710938,-135.36216735839844,-104.78498077392578,-0.134033203125,0.951171875,0.194580078125,-13.336180686950684,-7.415771007537842,25.329587936401367,60.0,53.0,1.0,Rest
-125.34858703613281,-153.9588165283203,-67.14464569091797,-141.79946899414062,-120.341796875,-138.93844604492188,-134.736328125,-104.6955795288086,-0.127197265625,0.96240234375,0.19189453125,-12.603758811950684,-6.835937023162842,24.261472702026367,60.0,54.0,1.0,Rest
-124.72274017333984,-153.24356079101562,-66.96582794189453,-141.1736297607422,-119.89476013183594,-138.0443878173828,-134.1104736328125,-104.33795166015625,-0.1240234375,0.969482421875,0.2001953125,-11.901854515075684,-6.011962413787842,23.620603561401367,60.0,55.0,1.0,Rest
-124.27570343017578,-152.34950256347656,-66.6976089477539,-140.36895751953125,-119.4477310180664,-137.23971557617188,-133.3952178955078,-104.0697250366211,-0.11572265625,0.970947265625,0.195068359375,-11.077879905700684,-5.279540538787842,22.918699264526367,60.0,56.0,1.0,Rest
-123.73926544189453,-151.63424682617188,-66.6976089477539,-139.83251953125,-118.8218765258789,-136.70327758789062,-132.67996215820312,-103.89091491699219,-0.12158203125,0.9658203125,0.1943359375,-10.528563499450684,-4.669188976287842,21.881101608276367,60.0,57.0,1.0,Rest
-123.29222869873047,-150.5613555908203,-66.33998107910156,-139.38548278808594,-118.55365753173828,-136.16683959960938,-132.4117431640625,-103.62269592285156,-0.123046875,0.9482421875,0.194091796875,-9.887694358825684,-4.272460460662842,20.324705123901367,60.0,58.0,1.0,Rest
-122.57697296142578,-149.93551635742188,-66.25057220458984,-138.67022705078125,-118.10662078857422,-135.54098510742188,-131.4282684326172,-103.3544692993164,-0.119873046875,0.93603515625,0.195068359375,-8.819579124450684,-3.723144292831421,18.218992233276367,60.0,59.0,1.0,Rest
-122.21934509277344,-149.13084411621094,-66.25057220458984,-138.31260681152344,-117.74899291992188,-134.736328125,-130.89181518554688,-103.1756591796875,-0.117919921875,0.92724609375,0.201171875,-7.232665538787842,-2.929687261581421,15.594481468200684,60.0,60.0,1.0,Rest
-121.68289947509766,-148.50498962402344,-66.42938995361328,-137.4185333251953,-117.21255493164062,-134.28929138183594,-130.53419494628906,-102.99684143066406,-0.1142578125,0.9306640625,0.19921875,-5.706786632537842,-2.593993902206421,12.786864280700684,60.0,61.0,1.0,Rest
-121.23587036132812,-147.70033264160156,-66.07176208496094,-136.70327758789062,-116.85492706298828,-133.75283813476562,-129.81893920898438,-102.81803131103516,-0.109130859375,0.93408203125,0.20361328125,-4.516601085662842,-2.319335699081421,10.101317405700684,60.0,62.0,1.0,Rest
-121.23587036132812,-147.1638946533203,-66.16116333007812,-136.25624084472656,-116.58670806884766,-133.03758239746094,-129.55072021484375,-102.72862243652344,-0.110107421875,0.948974609375,0.21044921875,-3.173827886581421,-2.014159917831421,7.659911632537842,60.0,63.0,1.0,Rest
-120.87824249267578,-146.71685791015625,-66.07176208496094,-135.98802185058594,-116.3184814453125,-132.85877990722656,-129.3719024658203,-102.63921356201172,-0.106689453125,0.96728515625,0.208251953125,-1.9226073026657104,-1.5869139432907104,5.676269054412842,60.0,64.0,1.0,Rest
-120.341796875,-146.09100341796875,-66.07176208496094,-135.63038635253906,-115.96085357666016,-132.32232666015625,-128.7460479736328,-102.28158569335938,-0.10302734375,0.97265625,0.20654296875,-0.9155272841453552,-0.8850097060203552,3.814697027206421,60.0,65.0,1.0,Rest
-119.80535888671875,-145.4651641845703,-66.07176208496094,-135.183349609375,-115.4244155883789,-131.96470642089844,-128.20960998535156,-102.10277557373047,-0.103515625,0.9697265625,0.201904296875,0.1831054538488388,-0.0610351525247097,1.9531248807907104,60.0,66.0,1.0,Rest
-119.4477310180664,-144.74990844726562,-65.7141342163086,-134.91513061523438,-115.06678771972656,-131.60707092285156,-127.76258087158203,-101.83454895019531,-0.1025390625,0.96337890625,0.1953125,1.1291502714157104,0.4577636420726776,0.1831054538488388,60.0,67.0,1.0,Rest
-119.17950439453125,-144.30287170410156,-65.80353546142578,-134.55751037597656,-114.79856872558594,-131.33885192871094,-127.49435424804688,-101.6557388305664,-0.1083984375,0.9599609375,0.192138671875,1.5869139432907104,0.5798339247703552,-1.6784666776657104,60.0,68.0,1.0,Rest
-118.64306640625,-144.2134552001953,-65.8929443359375,-134.0210723876953,-114.53034210205078,-130.7130126953125,-127.13672637939453,-101.56632995605469,-0.11083984375,0.957275390625,0.192138671875,1.8005369901657104,0.3051757514476776,-3.570556402206421,60.0,69.0,1.0,Rest
-118.55365753173828,-143.8558349609375,-65.98235321044922,-133.84225463867188,-114.53034210205078,-130.53419494628906,-127.04732513427734,-101.38751983642578,-0.1123046875,0.95068359375,0.19287109375,2.014159917831421,0.0915527269244194,-5.432128429412842,60.0,70.0,1.0,Rest
-118.10662078857422,-143.40879821777344,-65.8929443359375,-133.57403564453125,-114.53034210205078,-130.35537719726562,-126.689697265625,-101.29811096191406,-0.11474609375,0.95068359375,0.196044921875,2.441406011581421,0.0610351525247097,-6.927489757537842,60.0,71.0,1.0,Rest
-118.10662078857422,-142.96176147460938,-65.80353546142578,-132.94818115234375,-114.17271423339844,-129.9977569580078,-126.33206939697266,-101.02989196777344,-0.114501953125,0.94970703125,0.204345703125,3.448486089706421,0.5798339247703552,-8.300780296325684,60.0,72.0,1.0,Rest
-117.74899291992188,-142.2465057373047,-65.62472534179688,-132.5011444091797,-113.8150863647461,-129.7295379638672,-126.0638427734375,-101.11929321289062,-0.11181640625,0.945068359375,0.213134765625,4.913329601287842,1.8615721464157104,-9.948729515075684,60.0,73.0,1.0,Rest
-117.39136505126953,-142.06768798828125,-65.62472534179688,-132.5011444091797,-113.45745849609375,-129.3719024658203,-125.79562377929688,-101.02989196777344,-0.114990234375,0.942138671875,0.206787109375,6.652831554412842,3.143310308456421,-11.596678733825684,60.0,74.0,1.0,Rest
-117.03373718261719,-141.79946899414062,-65.62472534179688,-132.23292541503906,-113.0998306274414,-129.0142822265625,-125.43799591064453,-100.76166534423828,-0.120849609375,0.949462890625,0.1982421875,7.629394054412842,3.479003667831421,-13.397215843200684,60.0,75.0,1.0,Rest
-116.9443359375,-141.4418487548828,-65.62472534179688,-132.23292541503906,-113.01042175292969,-128.4778289794922,-125.34858703613281,-100.94048309326172,-0.124267578125,0.95458984375,0.19482421875,8.117674827575684,3.112792730331421,-15.228270530700684,60.0,76.0,1.0,Rest
-116.9443359375,-140.99481201171875,-65.7141342163086,-131.785888671875,-112.9210205078125,-128.2990264892578,-125.1697769165039,-100.94048309326172,-0.125244140625,0.9599609375,0.1923828125,8.422850608825684,3.051757574081421,-16.815183639526367,60.0,77.0,1.0,Rest
-116.76551818847656,-140.8159942626953,-65.44590759277344,-131.4282684326172,-112.38457489013672,-128.20960998535156,-124.90155029296875,-100.6722640991211,-0.126953125,0.964111328125,0.1904296875,8.819579124450684,3.204345464706421,-18.218992233276367,60.0,78.0,1.0,Rest
-116.40789031982422,-140.72659301757812,-65.26709747314453,-131.24945068359375,-112.56339263916016,-128.20960998535156,-124.63333129882812,-100.76166534423828,-0.128173828125,0.968505859375,0.188232421875,9.368895530700684,3.692626714706421,-19.439695358276367,60.0,79.0,1.0,Rest
-116.05026245117188,-140.36895751953125,-65.17768859863281,-131.0706329345703,-112.56339263916016,-127.94139099121094,-124.3651123046875,-100.40403747558594,-0.13232421875,0.966552734375,0.18408203125,9.674071311950684,4.119872570037842,-20.660398483276367,60.0,80.0,1.0,Rest
-115.87145233154297,-140.19015502929688,-65.44590759277344,-131.0706329345703,-112.38457489013672,-127.76258087158203,-124.18629455566406,-100.0464096069336,-0.1357421875,0.962646484375,0.18212890625,10.162352561950684,4.119872570037842,-21.942136764526367,60.0,81.0,1.0,Rest
-115.51382446289062,-139.83251953125,-65.35650634765625,-130.89181518554688,-112.02694702148438,-127.49435424804688,-124.09689331054688,-100.31463623046875,-0.141357421875,0.957275390625,0.184814453125,10.314940452575684,3.845214605331421,-23.010251998901367,60.0,82.0,1.0,Rest
-115.4244155883789,-139.56430053710938,-65.44590759277344,-130.53419494628906,-111.84813690185547,-127.49435424804688,-123.91807556152344,-100.22522735595703,-0.14404296875,0.95458984375,0.1865234375,10.345458030700684,3.601073980331421,-23.925779342651367,60.0,83.0,1.0,Rest
-115.51382446289062,-139.4748992919922,-65.35650634765625,-130.1765594482422,-111.66931915283203,-127.13672637939453,-123.5604476928711,-100.0464096069336,-0.147216796875,0.955078125,0.184814453125,10.620116233825684,3.570556402206421,-24.597166061401367,60.0,84.0,1.0,Rest
-115.4244155883789,-139.2066650390625,-65.35650634765625,-129.90834045410156,-111.4011001586914,-126.8685073852539,-123.11341094970703,-99.9570083618164,-0.151611328125,0.958740234375,0.187255859375,11.016844749450684,3.723144292831421,-24.871824264526367,60.0,85.0,1.0,Rest
-115.15619659423828,-139.2066650390625,-65.44590759277344,-129.7295379638672,-111.4011001586914,-126.8685073852539,-123.11341094970703,-99.86759948730469,-0.15283203125,0.963623046875,0.191162109375,11.505125999450684,4.302978038787842,-25.024412155151367,60.0,86.0,1.0,Rest
-115.15619659423828,-138.8490447998047,-65.53531646728516,-129.55072021484375,-111.13288116455078,-126.77909851074219,-123.02400970458984,-99.9570083618164,-0.154541015625,0.962646484375,0.188720703125,12.237547874450684,5.065917491912842,-25.177000045776367,60.0,87.0,1.0,Rest
-115.06678771972656,-138.67022705078125,-65.44590759277344,-129.55072021484375,-111.04347229003906,-126.77909851074219,-123.11341094970703,-99.86759948730469,-0.16015625,0.961669921875,0.178466796875,12.634276390075684,5.310058116912842,-25.421140670776367,60.0,88.0,1.0,Rest
-114.88796997070312,-138.4914093017578,-65.17768859863281,-129.28250122070312,-111.13288116455078,-126.42147064208984,-123.02400970458984,-99.77819061279297,-0.163818359375,0.961669921875,0.1748046875,12.725829124450684,5.340575695037842,-25.604246139526367,60.0,89.0,1.0,Rest
-114.53034210205078,-138.31260681152344,-65.26709747314453,-129.3719024658203,-110.95406341552734,-126.24266052246094,-122.6663818359375,-99.68878173828125,-0.16650390625,0.960693359375,0.17138671875,12.512206077575684,5.065917491912842,-25.878904342651367,60.0,90.0,1.0,Rest
-114.6197509765625,-138.0443878173828,-65.44590759277344,-129.3719024658203,-111.04347229003906,-125.97444152832031,-122.21934509277344,-99.77819061279297,-0.17138671875,0.958740234375,0.169677734375,12.115477561950684,4.455565929412842,-26.031492233276367,60.0,91.0,1.0,Rest
-114.44093322753906,-137.95497131347656,-65.44590759277344,-128.92486572265625,-110.86465454101562,-126.15325164794922,-122.30875396728516,-99.77819061279297,-0.174560546875,0.957275390625,0.173095703125,11.932372093200684,3.997802495956421,-26.031492233276367,60.0,92.0,1.0,Rest
-114.35153198242188,-137.77615356445312,-65.26709747314453,-128.65664672851562,-110.596435546875,-125.79562377929688,-122.12993621826172,-99.68878173828125,-0.1728515625,0.958251953125,0.175537109375,11.932372093200684,4.089354991912842,-25.970457077026367,60.0,93.0,1.0,Rest
-114.53034210205078,-137.59735107421875,-65.35650634765625,-128.4778289794922,-110.32821655273438,-125.79562377929688,-121.95112609863281,-99.77819061279297,-0.173583984375,0.95751953125,0.177978515625,12.298583030700684,4.364013195037842,-25.909421920776367,60.0,94.0,1.0,Rest
-114.26212310791016,-137.23971557617188,-65.17768859863281,-128.83546447753906,-110.50702667236328,-125.70621490478516,-122.12993621826172,-99.77819061279297,-0.177490234375,0.959716796875,0.17333984375,12.786864280700684,4.943847179412842,-25.726316452026367,60.0,95.0,1.0,Rest
-114.17271423339844,-137.1503143310547,-65.44590759277344,-128.388427734375,-110.4176254272461,-125.61680603027344,-121.95112609863281,-99.42056274414062,-0.177734375,0.962646484375,0.17138671875,12.969969749450684,5.157470226287842,-25.421140670776367,60.0,96.0,1.0,Rest
-114.08330535888672,-137.23971557617188,-65.35650634765625,-128.4778289794922,-110.32821655273438,-125.43799591064453,-121.8617172241211,-99.59938049316406,-0.180419921875,0.9638671875,0.16748046875,12.939452171325684,5.157470226287842,-25.238035202026367,60.0,97.0,1.0,Rest
-113.90449523925781,-137.1503143310547,-65.17768859863281,-128.4778289794922,-110.32821655273438,-125.34858703613281,-121.68289947509766,-99.3311538696289,-0.184326171875,0.962158203125,0.16259765625,12.725829124450684,5.065917491912842,-25.268552780151367,60.0,98.0,1.0,Rest
-113.72567749023438,-137.1503143310547,-65.35650634765625,-128.12020874023438,-110.4176254272461,-125.34858703613281,-121.59349822998047,-99.3311538696289,-0.185302734375,0.960205078125,0.160400390625,12.390135765075684,4.699706554412842,-25.268552780151367,60.0,99.0,1.0,Rest
-113.54686737060547,-136.88209533691406,-65.17768859863281,-128.12020874023438,-109.97058868408203,-125.34858703613281,-121.41468048095703,-99.15234375,-0.185546875,0.95849609375,0.16455078125,12.054442405700684,4.425048351287842,-25.054929733276367,60.0,100.0,1.0,Rest
-113.54686737060547,-136.61386108398438,-65.35650634765625,-128.20960998535156,-110.05999755859375,-124.99095916748047,-121.59349822998047,-99.15234375,-0.18798828125,0.959228515625,0.1630859375,11.901854515075684,4.180907726287842,-24.810789108276367,60.0,101.0,1.0,Rest
-113.27864837646484,-136.61386108398438,-65.17768859863281,-128.03079223632812,-109.88117980957031,-125.08036804199219,-121.50408935546875,-99.24175262451172,-0.193603515625,0.957763671875,0.16259765625,11.688231468200684,4.302978038787842,-24.505613327026367,60.0,102.0,1.0,Rest
-113.27864837646484,-136.34564208984375,-65.0882797241211,-127.94139099121094,-109.88117980957031,-124.90155029296875,-121.32527160644531,-99.15234375,-0.197021484375,0.95703125,0.163818359375,11.596678733825684,4.302978038787842,-24.078367233276367,60.0,103.0,1.0,Rest
-113.36804962158203,-136.43505859375,-65.26709747314453,-127.76258087158203,-109.88117980957031,-124.90155029296875,-121.23587036132812,-99.15234375,-0.19921875,0.956787109375,0.163330078125,11.535643577575684,4.394530773162842,-23.559568405151367,60.0,104.0,1.0,Rest
-113.27864837646484,-136.5244598388672,-65.26709747314453,-127.5837631225586,-109.7917709350586,-124.81214904785156,-121.23587036132812,-98.88412475585938,-0.19921875,0.957763671875,0.1640625,11.413573265075684,4.425048351287842,-22.766111373901367,60.0,105.0,1.0,Rest
-113.01042175292969,-136.43505859375,-65.0882797241211,-127.5837631225586,-109.97058868408203,-124.81214904785156,-120.96764373779297,-99.15234375,-0.2001953125,0.958984375,0.1611328125,11.413573265075684,4.455565929412842,-22.216794967651367,60.0,106.0,1.0,Rest
-113.27864837646484,-136.25624084472656,-65.35650634765625,-127.5837631225586,-109.7023696899414,-124.63333129882812,-120.78883361816406,-98.88412475585938,-0.20361328125,0.95751953125,0.1552734375,11.077879905700684,4.638671398162842,-21.575925827026367,60.0,107.0,1.0,Rest
-113.27864837646484,-135.98802185058594,-65.44590759277344,-127.49435424804688,-109.61296081542969,-124.63333129882812,-120.87824249267578,-98.79471588134766,-0.20458984375,0.9619140625,0.151611328125,10.650633811950684,4.699706554412842,-20.874021530151367,60.0,108.0,1.0,Rest
-113.01042175292969,-135.8092041015625,-65.44590759277344,-127.31554412841797,-109.43414306640625,-124.3651123046875,-120.96764373779297,-98.88412475585938,-0.20556640625,0.967041015625,0.148681640625,10.162352561950684,4.516601085662842,-20.385740280151367,60.0,109.0,1.0,Rest
-113.01042175292969,-135.7198028564453,-65.35650634765625,-127.5837631225586,-109.61296081542969,-124.3651123046875,-120.87824249267578,-98.88412475585938,-0.205810546875,0.965576171875,0.151123046875,9.552000999450684,4.089354991912842,-19.744871139526367,60.0,110.0,1.0,Rest
-112.9210205078125,-135.8986053466797,-65.17768859863281,-127.49435424804688,-109.52355194091797,-124.18629455566406,-120.61001586914062,-98.97352600097656,-0.208251953125,0.962890625,0.15234375,9.216307640075684,3.753661870956421,-19.317625045776367,60.0,111.0,1.0,Rest
-112.9210205078125,-135.8092041015625,-65.17768859863281,-127.31554412841797,-109.52355194091797,-124.3651123046875,-120.61001586914062,-99.06293487548828,-0.208251953125,0.95849609375,0.15283203125,8.941649436950684,3.570556402206421,-18.890378952026367,60.0,112.0,1.0,Rest
-112.9210205078125,-135.63038635253906,-64.9988784790039,-127.04732513427734,-109.52355194091797,-124.3651123046875,-120.78883361816406,-98.97352600097656,-0.21044921875,0.95654296875,0.152587890625,8.728026390075684,3.540038824081421,-18.310544967651367,60.0,113.0,1.0,Rest
-112.83161163330078,-135.7198028564453,-64.90946960449219,-127.49435424804688,-109.34474182128906,-124.18629455566406,-120.52061462402344,-98.70530700683594,-0.21240234375,0.957275390625,0.153564453125,8.605956077575684,3.540038824081421,-17.761228561401367,60.0,114.0,1.0,Rest
-112.74220275878906,-135.8092041015625,-65.17768859863281,-127.40495300292969,-109.16592407226562,-124.00748443603516,-120.52061462402344,-98.61589813232422,-0.216064453125,0.9560546875,0.153564453125,8.361815452575684,3.356933355331421,-17.364500045776367,60.0,115.0,1.0,Rest
-112.74220275878906,-135.7198028564453,-65.17768859863281,-127.04732513427734,-109.16592407226562,-124.00748443603516,-120.52061462402344,-98.70530700683594,-0.2177734375,0.953857421875,0.152099609375,7.995604991912842,2.960204839706421,-16.845701217651367,60.0,116.0,1.0,Rest
-112.56339263916016,-135.7198028564453,-65.17768859863281,-126.689697265625,-109.16592407226562,-124.00748443603516,-120.341796875,-98.70530700683594,-0.218017578125,0.954345703125,0.15185546875,7.812499523162842,2.685546636581421,-16.387937545776367,60.0,117.0,1.0,Rest
-112.38457489013672,-135.4515838623047,-64.9988784790039,-126.95791625976562,-109.16592407226562,-124.00748443603516,-120.341796875,-98.79471588134766,-0.2177734375,0.954833984375,0.15234375,7.507323741912842,2.593993902206421,-15.838622093200684,60.0,118.0,1.0,Rest
-112.47398376464844,-135.54098510742188,-65.17768859863281,-126.95791625976562,-109.25533294677734,-123.91807556152344,-120.43120574951172,-98.70530700683594,-0.2216796875,0.9560546875,0.151123046875,7.354735851287842,2.563476324081421,-15.228270530700684,60.0,119.0,1.0,Rest
-112.56339263916016,-135.36216735839844,-65.17768859863281,-126.8685073852539,-109.0765151977539,-123.91807556152344,-120.61001586914062,-98.88412475585938,-0.219482421875,0.95556640625,0.150146484375,7.141112804412842,2.593993902206421,-14.648436546325684,60.0,120.0,1.0,Rest
-112.56339263916016,-135.27276611328125,-65.17768859863281,-126.8685073852539,-108.98711395263672,-123.73926544189453,-120.341796875,-98.88412475585938,-0.220458984375,0.95556640625,0.147705078125,6.896972179412842,2.502441167831421,-14.038084983825684,60.0,121.0,1.0,Rest
-112.74220275878906,-135.54098510742188,-65.17768859863281,-126.689697265625,-108.98711395263672,-123.73926544189453,-120.61001586914062,-98.61589813232422,-0.220458984375,0.957763671875,0.146484375,6.744384288787842,2.441406011581421,-13.519286155700684,60.0,122.0,1.0,Rest
-112.56339263916016,-135.4515838623047,-65.0882797241211,-126.60028839111328,-109.25533294677734,-123.91807556152344,-120.61001586914062,-98.52649688720703,-0.222412109375,0.958251953125,0.14794921875,6.408690929412842,2.349853277206421,-12.969969749450684,60.0,123.0,1.0,Rest
-112.47398376464844,-135.183349609375,-65.17768859863281,-126.95791625976562,-109.25533294677734,-123.91807556152344,-120.43120574951172,-98.52649688720703,-0.220458984375,0.955322265625,0.1455078125,6.011962413787842,2.075195074081421,-12.481688499450684,60.0,124.0,1.0,Rest
-112.56339263916016,-135.00454711914062,-65.0882797241211,-126.8685073852539,-108.98711395263672,-123.64985656738281,-120.1629867553711,-98.70530700683594,-0.22314453125,0.95849609375,0.146728515625,5.554198741912842,1.7089842557907104,-12.084959983825684,60.0,125.0,1.0,Rest
-112.38457489013672,-135.0939483642578,-64.9988784790039,-126.689697265625,-108.98711395263672,-123.73926544189453,-120.43120574951172,-98.52649688720703,-0.22314453125,0.958984375,0.146484375,5.279540538787842,1.4038084745407104,-11.474608421325684,60.0,126.0,1.0,Rest
-112.295166015625,-135.183349609375,-65.35650634765625,-126.60028839111328,-108.897705078125,-123.5604476928711,-120.1629867553711,-98.43708801269531,-0.22412109375,0.96044921875,0.148681640625,5.096435070037842,1.3122557401657104,-10.833739280700684,60.0,127.0,1.0,Rest
-112.47398376464844,-135.183349609375,-65.26709747314453,-126.77909851074219,-108.98711395263672,-123.5604476928711,-120.07357788085938,-98.61589813232422,-0.224609375,0.96044921875,0.145751953125,4.882812023162842,1.2817381620407104,-10.192870140075684,60.0,128.0,1.0,Rest
-112.38457489013672,-135.00454711914062,-65.17768859863281,-126.689697265625,-108.71888732910156,-123.47103881835938,-120.07357788085938,-98.52649688720703,-0.227294921875,0.957763671875,0.1435546875,4.638671398162842,1.2207030057907104,-9.582518577575684,60.0,129.0,1.0,Rest
-112.1163558959961,-134.91513061523438,-65.17768859863281,-126.60028839111328,-108.71888732910156,-123.73926544189453,-120.07357788085938,-98.61589813232422,-0.22802734375,0.955322265625,0.144287109375,4.180907726287842,1.0681151151657104,-9.033202171325684,60.0,130.0,1.0,Rest
-112.295166015625,-134.64691162109375,-65.35650634765625,-126.42147064208984,-108.80829620361328,-123.64985656738281,-119.98416900634766,-98.52649688720703,-0.230224609375,0.956787109375,0.14208984375,3.753661870956421,0.8239745497703552,-8.422850608825684,60.0,131.0,1.0,Rest
-112.1163558959961,-134.736328125,-65.17768859863281,-126.33206939697266,-108.71888732910156,-123.5604476928711,-119.98416900634766,-98.61589813232422,-0.22998046875,0.95556640625,0.1455078125,3.631591558456421,0.6713866591453552,-7.781981945037842,60.0,132.0,1.0,Rest
-112.20576477050781,-134.91513061523438,-64.90946960449219,-126.42147064208984,-108.54007720947266,-123.47103881835938,-120.07357788085938,-98.43708801269531,-0.230712890625,0.9541015625,0.141845703125,3.265380620956421,0.5187987685203552,-7.171630382537842,60.0,133.0,1.0,Rest
-111.93753814697266,-134.91513061523438,-64.90946960449219,-126.60028839111328,-108.36125946044922,-123.47103881835938,-120.1629867553711,-98.52649688720703,-0.232666015625,0.953857421875,0.14306640625,2.929687261581421,0.3356933295726776,-6.561278820037842,60.0,134.0,1.0,Rest
-112.1163558959961,-134.64691162109375,-64.55184173583984,-126.24266052246094,-108.62948608398438,-123.5604476928711,-120.07357788085938,-98.52649688720703,-0.230712890625,0.95458984375,0.141357421875,2.563476324081421,0.3356933295726776,-5.737304210662842,60.0,135.0,1.0,Rest
-112.1163558959961,-134.8257293701172,-64.46243286132812,-126.24266052246094,-108.62948608398438,-123.47103881835938,-119.89476013183594,-98.52649688720703,-0.22998046875,0.95703125,0.14111328125,2.319335699081421,0.2136230319738388,-4.974364757537842,60.0,136.0,1.0,Rest
-112.02694702148438,-135.00454711914062,-64.55184173583984,-126.33206939697266,-108.62948608398438,-123.47103881835938,-119.71595001220703,-98.3476791381836,-0.2314453125,0.95703125,0.144287109375,1.9531248807907104,0.1220703050494194,-4.333495616912842,60.0,137.0,1.0,Rest
-112.02694702148438,-134.64691162109375,-64.28362274169922,-126.33206939697266,-108.36125946044922,-123.38163757324219,-119.80535888671875,-98.52649688720703,-0.231201171875,0.956787109375,0.142578125,1.6479490995407104,0.0610351525247097,-3.601073980331421,60.0,138.0,1.0,Rest
-111.84813690185547,-134.736328125,-64.1942138671875,-126.42147064208984,-108.36125946044922,-123.38163757324219,-119.98416900634766,-98.52649688720703,-0.23193359375,0.95556640625,0.140625,1.3732908964157104,-0.1525878757238388,-2.960204839706421,60.0,139.0,1.0,Rest
-111.84813690185547,-134.736328125,-64.10480499267578,-126.42147064208984,-108.27185821533203,-123.38163757324219,-119.89476013183594,-98.52649688720703,-0.232177734375,0.954345703125,0.141357421875,1.0986326932907104,-0.3662109076976776,-2.166747808456421,60.0,140.0,1.0,Rest
-111.84813690185547,-134.736328125,-64.01539611816406,-126.24266052246094,-108.36125946044922,-123.29222869873047,-119.98416900634766,-98.43708801269531,-0.233154296875,0.956787109375,0.142333984375,0.6408690810203552,-0.5493163466453552,-1.5258787870407104,60.0,141.0,1.0,Rest
-111.75872802734375,-134.91513061523438,-64.01539611816406,-126.15325164794922,-108.27185821533203,-123.38163757324219,-119.80535888671875,-98.3476791381836,-0.232666015625,0.955810546875,0.14501953125,0.3356933295726776,-0.7934569716453552,-0.9460448622703552,60.0,142.0,1.0,Rest
-111.84813690185547,-134.91513061523438,-63.836585998535156,-126.33206939697266,-108.0930404663086,-123.29222869873047,-119.71595001220703,-98.43708801269531,-0.23291015625,0.955322265625,0.144775390625,0.0,-0.8850097060203552,-0.3967284858226776,60.0,143.0,1.0,Rest
-112.1163558959961,-134.8257293701172,-63.836585998535156,-126.42147064208984,-108.18244934082031,-123.29222869873047,-119.98416900634766,-98.43708801269531,-0.230712890625,0.95556640625,0.145263671875,-0.1525878757238388,-0.7934569716453552,0.2441406100988388,60.0,144.0,1.0,Rest
-112.02694702148438,-134.64691162109375,-63.568363189697266,-126.33206939697266,-108.0930404663086,-123.38163757324219,-119.80535888671875,-98.43708801269531,-0.22998046875,0.9560546875,0.144775390625,-0.3356933295726776,-0.7934569716453552,0.7934569716453552,60.0,145.0,1.0,Rest
-111.93753814697266,-134.8257293701172,-63.21073532104492,-126.24266052246094,-108.00363159179688,-123.47103881835938,-119.5371322631836,-97.99005126953125,-0.23095703125,0.956787109375,0.14306640625,-0.5187987685203552,-0.7629393935203552,1.2207030057907104,60.0,146.0,1.0,Rest
-111.93753814697266,-135.00454711914062,-63.12133026123047,-126.33206939697266,-107.91423034667969,-123.11341094970703,-119.62654113769531,-98.25827026367188,-0.230712890625,0.956787109375,0.136474609375,-0.6713866591453552,-1.0070799589157104,1.8310545682907104,60.0,147.0,1.0,Rest
-111.93753814697266,-134.736328125,-62.9425163269043,-126.24266052246094,-107.91423034667969,-123.20281982421875,-119.71595001220703,-98.25827026367188,-0.2294921875,0.95703125,0.140380859375,-1.1596678495407104,-1.3122557401657104,2.136230230331421,60.0,148.0,1.0,Rest
-111.93753814697266,-135.00454711914062,-62.674293518066406,-126.24266052246094,-107.91423034667969,-123.29222869873047,-119.62654113769531,-98.07946014404297,-0.22900390625,0.956298828125,0.14208984375,-1.4038084745407104,-1.5258787870407104,2.532958745956421,60.0,149.0,1.0,Rest
-111.75872802734375,-135.00454711914062,-62.495479583740234,-126.15325164794922,-107.82482147216797,-123.29222869873047,-119.71595001220703,-97.6324234008789,-0.228515625,0.954345703125,0.142822265625,-1.6174315214157104,-1.6479490995407104,2.960204839706421,60.0,150.0,1.0,Rest
-111.84813690185547,-135.0939483642578,-62.495479583740234,-126.15325164794922,-107.55660247802734,-123.02400970458984,-119.62654113769531,-97.54301452636719,-0.226806640625,0.954345703125,0.1435546875,-1.8310545682907104,-1.7089842557907104,3.387450933456421,60.0,151.0,1.0,Rest
-111.75872802734375,-135.0939483642578,-62.31666564941406,-126.24266052246094,-107.64600372314453,-123.02400970458984,-119.71595001220703,-97.36420440673828,-0.2265625,0.953369140625,0.14892578125,-1.9226073026657104,-1.7395018339157104,3.814697027206421,60.0,152.0,1.0,Rest
-111.84813690185547,-135.0939483642578,-62.22726058959961,-126.24266052246094,-107.55660247802734,-123.11341094970703,-119.35832214355469,-97.36420440673828,-0.22509765625,0.954345703125,0.1455078125,-1.9226073026657104,-1.7700194120407104,4.150390148162842,60.0,153.0,1.0,Rest
-111.93753814697266,-135.0939483642578,-62.04844665527344,-126.42147064208984,-107.55660247802734,-123.38163757324219,-119.5371322631836,-97.18538665771484,-0.224365234375,0.95361328125,0.145751953125,-2.014159917831421,-1.7395018339157104,4.577636241912842,60.0,154.0,1.0,Rest
-112.1163558959961,-135.00454711914062,-61.690818786621094,-126.42147064208984,-107.46719360351562,-123.38163757324219,-119.80535888671875,-96.6489486694336,-0.22412109375,0.953369140625,0.146240234375,-2.136230230331421,-1.8310545682907104,4.791259288787842,60.0,155.0,1.0,Rest
-111.84813690185547,-135.183349609375,-61.4225959777832,-126.0638427734375,-107.198974609375,-123.29222869873047,-119.5371322631836,-96.6489486694336,-0.224609375,0.954345703125,0.1474609375,-2.319335699081421,-1.9836424589157104,5.035399913787842,60.0,156.0,1.0,Rest
-111.84813690185547,-135.183349609375,-61.33319091796875,-126.0638427734375,-107.198974609375,-123.11341094970703,-119.4477310180664,-96.29132080078125,-0.2216796875,0.953857421875,0.14599609375,-2.502441167831421,-2.075195074081421,5.187987804412842,60.0,157.0,1.0,Rest
-111.84813690185547,-135.183349609375,-60.88615417480469,-125.97444152832031,-107.198974609375,-123.11341094970703,-119.80535888671875,-96.11250305175781,-0.220703125,0.955322265625,0.14794921875,-2.685546636581421,-2.166747808456421,5.187987804412842,60.0,158.0,1.0,Rest
-111.93753814697266,-135.4515838623047,-60.796749114990234,-126.15325164794922,-107.198974609375,-122.93460083007812,-119.5371322631836,-96.11250305175781,-0.217529296875,0.95556640625,0.148193359375,-2.716064214706421,-2.288818120956421,5.279540538787842,60.0,159.0,1.0,Rest
-111.84813690185547,-135.4515838623047,-60.43912124633789,-126.15325164794922,-106.93074798583984,-122.8451919555664,-119.26891326904297,-96.02310180664062,-0.216796875,0.955810546875,0.147216796875,-2.593993902206421,-2.227782964706421,5.249022960662842,60.0,160.0,1.0,Rest
-111.93753814697266,-135.54098510742188,-60.1708984375,-126.0638427734375,-106.75193786621094,-123.02400970458984,-119.26891326904297,-95.57606506347656,-0.21826171875,0.952880859375,0.148681640625,-2.593993902206421,-2.166747808456421,5.310058116912842,60.0,161.0,1.0,Rest
-111.66931915283203,-135.54098510742188,-59.99208450317383,-126.15325164794922,-106.5731201171875,-123.11341094970703,-119.17950439453125,-95.39724731445312,-0.21728515625,0.953857421875,0.148193359375,-2.624511480331421,-2.136230230331421,5.523681163787842,60.0,162.0,1.0,Rest
-111.57991027832031,-135.54098510742188,-59.99208450317383,-125.97444152832031,-106.48371887207031,-123.02400970458984,-119.4477310180664,-95.1290283203125,-0.21728515625,0.95458984375,0.151123046875,-2.655029058456421,-2.105712652206421,5.584716320037842,60.0,163.0,1.0,Rest
-111.93753814697266,-135.54098510742188,-59.634456634521484,-125.97444152832031,-106.30490112304688,-123.02400970458984,-119.35832214355469,-94.68199157714844,-0.2177734375,0.955322265625,0.14794921875,-2.716064214706421,-2.075195074081421,5.615233898162842,60.0,164.0,1.0,Rest
-111.84813690185547,-135.7198028564453,-59.18742370605469,-125.79562377929688,-106.12609100341797,-122.93460083007812,-119.26891326904297,-94.50318145751953,-0.217529296875,0.955322265625,0.1455078125,-2.899169683456421,-2.258300542831421,5.645751476287842,60.0,165.0,1.0,Rest
-111.84813690185547,-135.8092041015625,-58.829795837402344,-125.79562377929688,-105.85786437988281,-123.02400970458984,-119.09010314941406,-94.05614471435547,-0.22021484375,0.956298828125,0.148681640625,-3.112792730331421,-2.410888433456421,5.737304210662842,60.0,166.0,1.0,Rest
-111.75872802734375,-135.8986053466797,-58.65098190307617,-125.97444152832031,-105.50023651123047,-123.11341094970703,-119.17950439453125,-93.78792572021484,-0.2236328125,0.958251953125,0.1494140625,-3.265380620956421,-2.746581792831421,5.950927257537842,60.0,167.0,1.0,Rest
-111.57991027832031,-135.8986053466797,-58.38275909423828,-125.97444152832031,-105.6790542602539,-123.11341094970703,-119.00069427490234,-93.69851684570312,-0.222412109375,0.955322265625,0.1494140625,-3.448486089706421,-2.746581792831421,6.286620616912842,60.0,168.0,1.0,Rest
-111.66931915283203,-135.8986053466797,-58.114540100097656,-126.0638427734375,-105.6790542602539,-123.02400970458984,-118.8218765258789,-93.6091079711914,-0.220947265625,0.953369140625,0.15087890625,-3.631591558456421,-2.655029058456421,6.744384288787842,60.0,169.0,1.0,Rest
-111.84813690185547,-136.16683959960938,-58.02513122558594,-126.0638427734375,-105.32142639160156,-122.93460083007812,-118.73247528076172,-93.34088897705078,-0.22265625,0.955810546875,0.150146484375,-3.570556402206421,-2.563476324081421,7.202147960662842,60.0,170.0,1.0,Rest
-111.93753814697266,-136.16683959960938,-57.75691223144531,-125.97444152832031,-105.14260864257812,-122.93460083007812,-118.91128540039062,-93.07266998291016,-0.22314453125,0.956787109375,0.15234375,-3.753661870956421,-2.655029058456421,7.781981945037842,60.0,171.0,1.0,Rest
-111.93753814697266,-136.43505859375,-57.39928436279297,-125.97444152832031,-105.14260864257812,-122.8451919555664,-119.00069427490234,-92.89385223388672,-0.221923828125,0.960205078125,0.1494140625,-4.089354991912842,-2.624511480331421,8.422850608825684,60.0,172.0,1.0,Rest
-111.75872802734375,-136.25624084472656,-56.952247619628906,-126.15325164794922,-105.05320739746094,-123.02400970458984,-118.64306640625,-92.26800537109375,-0.221923828125,0.95947265625,0.14697265625,-4.302978038787842,-2.807616949081421,8.850096702575684,60.0,173.0,1.0,Rest
-111.49050903320312,-136.07742309570312,-50.87257385253906,-123.11341094970703,-104.0697250366211,-120.52061462402344,-107.10956573486328,-59.813270568847656,-0.217529296875,0.958984375,0.146484375,-4.638671398162842,-2.990722417831421,9.338377952575684,60.0,174.0,1.0,Rest
-89.406982421875,-124.18629455566406,25.749210357666016,-52.83952713012695,-67.5916748046875,-53.55478286743164,18.328432083129883,111.4011001586914,-0.2197265625,0.95654296875,0.148193359375,-4.943847179412842,-3.112792730331421,9.704588890075684,60.0,175.0,1.0,Rest
14.9309663772583,-35.94160842895508,220.4776153564453,138.4914093017578,88.15528106689453,136.16683959960938,260.5319519042969,360.3101501464844,-0.22021484375,0.957275390625,0.14697265625,-5.065917491912842,-3.204345464706421,10.345458030700684,60.0,176.0,1.0,Rest
138.31260681152344,93.34088897705078,394.6424255371094,312.9244384765625,258.6543884277344,306.48712158203125,437.1107482910156,535.3690185546875,-0.2197265625,0.958251953125,0.14990234375,-5.493163585662842,-3.356933355331421,11.047362327575684,60.0,177.0,1.0,Rest
255.078125,215.3814239501953,520.7062377929688,438.45184326171875,381.767822265625,430.1369934082031,562.1911010742188,660.628173828125,-0.218505859375,0.9609375,0.1494140625,-5.798339366912842,-3.601073980331421,11.596678733825684,60.0,178.0,1.0,Rest
431.65692138671875,397.9504699707031,706.1363525390625,622.5408325195312,562.1911010742188,611.6331787109375,745.74365234375,844.8065795898438,-0.216796875,0.959716796875,0.151123046875,-6.042479991912842,-3.814697027206421,12.145995140075684,60.0,179.0,1.0,Rest
683.1587524414062,658.1248168945312,968.63525390625,883.1621704101562,816.8222045898438,868.231201171875,1006.0073852539062,1106.0538330078125,-0.216064453125,0.96044921875,0.150634765625,-6.286620616912842,-3.997802495956421,12.725829124450684,60.0,180.0,1.0,Rest
941.991943359375,925.004638671875,1238.197265625,1150.93603515625,1078.2481689453125,1132.16064453125,1275.2117919921875,1376.1522216796875,-0.21826171875,0.962890625,0.150634765625,-6.774901866912842,-4.089354991912842,13.336180686950684,60.0,181.0,1.0,Rest
1119.911865234375,1106.2325439453125,1422.107421875,1334.399169921875,1257.8668212890625,1313.65673828125,1461.6253662109375,1563.102294921875,-0.218017578125,0.9619140625,0.152099609375,-7.141112804412842,-4.180907726287842,14.068602561950684,60.0,182.0,1.0,Rest
1245.8863525390625,1232.743408203125,1551.5687255859375,1464.486328125,1385.5400390625,1442.1346435546875,1595.0205078125,1695.6033935546875,-0.216552734375,0.9609375,0.149658203125,-7.354735851287842,-4.272460460662842,14.892577171325684,60.0,183.0,1.0,Rest
1423.0909423828125,1407.3553466796875,1731.723876953125,1646.250732421875,1564.7115478515625,1623.0050048828125,1781.3447265625,1880.944091796875,-0.215087890625,0.960693359375,0.14892578125,-7.659911632537842,-4.486083507537842,15.716551780700684,60.0,184.0,1.0,Rest
1690.8648681640625,1665.741455078125,2000.8388671875,1918.316162109375,1835.61474609375,1894.6234130859375,2059.2216796875,2157.47998046875,-0.21630859375,0.95947265625,0.15087890625,-8.239745140075684,-4.821776866912842,16.540525436401367,60.0,185.0,1.0,Rest
1974.4637451171875,1936.1976318359375,2283.0966796875,2203.5244140625,2121.538330078125,2180.3681640625,2349.436767578125,2446.264404296875,-0.212890625,0.95947265625,0.152587890625,-8.728026390075684,-5.065917491912842,17.456052780151367,60.0,186.0,1.0,Rest
2173.126220703125,2125.47216796875,2480.060302734375,2401.91845703125,2321.2734375,2379.56689453125,2550.1552734375,2646.80419921875,-0.209716796875,0.9619140625,0.151611328125,-9.124754905700684,-5.249022960662842,18.310544967651367,60.0,187.0,1.0,Rest
2322.16748046875,2268.076416015625,2627.939453125,2550.244873046875,2470.940673828125,2528.787109375,2699.465087890625,2796.114013671875,-0.207763671875,0.962646484375,0.156494140625,-9.490965843200684,-5.249022960662842,19.256589889526367,60.0,188.0,1.0,Rest
2518.5947265625,2457.70849609375,2822.93603515625,2745.6884765625,2668.61962890625,2725.39306640625,2896.339111328125,2992.630615234375,-0.204833984375,0.96240234375,0.1572265625,-9.796141624450684,-5.279540538787842,20.111082077026367,60.0,189.0,1.0,Rest
2802.104248046875,2734.423095703125,3105.01513671875,3028.125,2953.738525390625,3008.63427734375,3179.312255859375,3276.2294921875,-0.2041015625,0.962158203125,0.155029296875,-10.223387718200684,-5.432128429412842,20.935056686401367,60.0,190.0,1.0,Rest
3088.20654296875,3016.14453125,3390.223388671875,3312.88623046875,3241.092529296875,3294.91552734375,3464.162841796875,3562.0634765625,-0.20361328125,0.960693359375,0.156982421875,-10.772704124450684,-5.615233898162842,21.697996139526367,60.0,191.0,1.0,Rest
3271.93798828125,3198.624267578125,3573.95458984375,3496.170654296875,3425.718017578125,3478.64697265625,3647.715576171875,3745.88427734375,-0.201416015625,0.961669921875,0.1611328125,-11.016844749450684,-5.737304210662842,22.369382858276367,60.0,192.0,1.0,Rest
3381.014404296875,3307.164306640625,3683.03125,3604.889404296875,3534.97314453125,3587.544677734375,3756.07666015625,3855.05029296875,-0.1982421875,0.96240234375,0.160888671875,-11.413573265075684,-5.981444835662842,23.101804733276367,60.0,193.0,1.0,Rest
3528.535888671875,3455.3115234375,3831.625732421875,3752.7685546875,3683.388916015625,3735.6025390625,3904.134765625,4003.55517578125,-0.195556640625,0.9638671875,0.16259765625,-11.535643577575684,-5.828856945037842,23.803709030151367,60.0,194.0,1.0,Rest
3760.3681640625,3688.395751953125,4065.33544921875,3985.316162109375,3916.83056640625,3968.77587890625,4137.0400390625,4236.9970703125,-0.19384765625,0.96142578125,0.16162109375,-11.657713890075684,-5.706786632537842,24.230955123901367,60.0,195.0,1.0,Rest
4000.873046875,3930.42041015625,4307.44970703125,4226.9833984375,4159.212890625,4210.9794921875,4378.70703125,4479.2900390625,-0.1904296875,0.960205078125,0.162841796875,-11.932372093200684,-5.920409679412842,24.475095748901367,60.0,196.0,1.0,Rest
4138.47021484375,4068.285888671875,4445.494140625,4364.58056640625,4297.16796875,4349.11328125,4516.48291015625,4617.24462890625,-0.19140625,0.96142578125,0.164794921875,-12.176512718200684,-6.378173351287842,24.841306686401367,60.0,197.0,1.0,Rest
4231.90087890625,4162.52099609375,4539.55029296875,4458.36865234375,4391.13427734375,4443.16943359375,4610.62841796875,4711.21142578125,-0.1865234375,0.9609375,0.1611328125,-12.512206077575684,-6.805419445037842,25.085447311401367,60.0,198.0,1.0,Rest
4390.41943359375,4322.4697265625,4699.85693359375,4617.78125,4550.90478515625,4602.7607421875,4770.130859375,4871.0712890625,-0.181396484375,0.96044921875,0.16796875,-12.695311546325684,-6.866454601287842,25.054929733276367,60.0,199.0,1.0,Rest
4628.42041015625,4562.4384765625,4939.8251953125,4857.57080078125,4790.6943359375,4842.55029296875,5010.09912109375,5111.3076171875,-0.17919921875,0.95947265625,0.16845703125,-12.573241233825684,-6.561278820037842,24.932859420776367,60.0,200.0,1.0,Rest
4875.8994140625,4810.900390625,5189.00244140625,5106.39013671875,5039.69287109375,5091.81689453125,5259.09765625,5360.75341796875,-0.1787109375,0.955078125,0.17431640625,-12.359618186950684,-6.378173351287842,24.993894577026367,60.0,201.0,1.0,Rest
5033.52392578125,4969.15087890625,5347.96826171875,5264.8193359375,5198.21142578125,5250.5146484375,5417.88427734375,5519.5400390625,-0.1767578125,0.958984375,0.173583984375,-12.298583030700684,-6.347655773162842,24.993894577026367,60.0,202.0,1.0,Rest
5130.97705078125,5067.587890625,5446.583984375,5363.52490234375,5296.55908203125,5349.041015625,5516.7685546875,5618.2451171875,-0.173583984375,0.9609375,0.172119140625,-12.298583030700684,-6.469726085662842,24.993894577026367,60.0,203.0,1.0,Rest
5279.83984375,5217.076171875,5596.60888671875,5513.28173828125,5446.13671875,5498.61865234375,5667.15087890625,5768.53857421875,-0.16943359375,0.958984375,0.17431640625,-12.298583030700684,-6.500243663787842,24.810789108276367,60.0,204.0,1.0,Rest
5514.08642578125,5452.126953125,5832.5537109375,5748.779296875,5681.4560546875,5734.2060546875,5903.27490234375,6004.662109375,-0.164794921875,0.958984375,0.1767578125,-12.268065452575684,-6.347655773162842,24.597166061401367,60.0,205.0,1.0,Rest
5752.9814453125,5691.73779296875,6072.8798828125,5988.9267578125,5921.7822265625,5974.17431640625,6143.6005859375,6245.435546875,-0.161865234375,0.95654296875,0.175537109375,-11.962889671325684,-6.195067882537842,23.986814498901367,60.0,206.0,1.0,Rest
5898.5361328125,5837.29248046875,6219.2392578125,6135.2861328125,6067.96240234375,6120.53369140625,6289.87060546875,6391.97314453125,-0.162109375,0.955810546875,0.18115234375,-11.840819358825684,-6.072997570037842,23.590085983276367,60.0,207.0,1.0,Rest
5982.57861328125,5922.22900390625,6304.08642578125,6220.13330078125,6153.078125,6205.380859375,6374.98583984375,6477.4462890625,-0.15869140625,0.9580078125,0.183349609375,-11.535643577575684,-6.011962413787842,23.040769577026367,60.0,208.0,1.0,Rest
6115.34814453125,6055.4453125,6437.57080078125,6353.61767578125,6286.205078125,6339.1337890625,6509.0966796875,6610.6630859375,-0.156982421875,0.95849609375,0.184814453125,-11.322020530700684,-6.072997570037842,22.796628952026367,60.0,209.0,1.0,Rest
6335.9150390625,6276.10205078125,6659.3896484375,6575.34716796875,6507.8447265625,6560.95263671875,6730.9150390625,6832.83935546875,-0.154052734375,0.957763671875,0.185791015625,-11.016844749450684,-5.920409679412842,22.277830123901367,60.0,210.0,1.0,Rest
6549.32958984375,6489.4267578125,6873.96630859375,6789.923828125,6722.5107421875,6775.529296875,6945.93896484375,7047.86279296875,-0.150146484375,0.957275390625,0.184814453125,-10.559081077575684,-5.615233898162842,21.667478561401367,60.0,211.0,1.0,Rest
6666.9892578125,6607.35498046875,6992.4306640625,6908.298828125,6841.24365234375,6894.0830078125,7064.58203125,7166.68505859375,-0.148681640625,0.956787109375,0.182373046875,-10.009764671325684,-5.401610851287842,20.935056686401367,60.0,212.0,1.0,Rest
6760.86669921875,6701.23193359375,7086.48681640625,7002.265625,6935.12060546875,6987.96044921875,7158.81689453125,7260.47265625,-0.14599609375,0.959716796875,0.18115234375,-9.552000999450684,-5.187987804412842,20.172117233276367,60.0,213.0,1.0,Rest
6914.19970703125,6854.38623046875,7240.80322265625,7156.22412109375,7089.1689453125,7142.27685546875,7312.95458984375,7415.0576171875,-0.1416015625,0.9619140625,0.18115234375,-9.216307640075684,-5.004882335662842,19.256589889526367,60.0,214.0,1.0,Rest
7146.47900390625,7086.30810546875,7474.06591796875,7389.57666015625,7322.7001953125,7375.62890625,7546.66455078125,7649.125,-0.140625,0.959716796875,0.185791015625,-8.941649436950684,-4.913329601287842,18.127439498901367,60.0,215.0,1.0,Rest
7387.4306640625,7327.4384765625,7716.26953125,7631.51171875,7565.171875,7617.83251953125,7789.404296875,7891.775390625,-0.1396484375,0.9580078125,0.189208984375,-8.514403343200684,-4.821776866912842,16.998289108276367,60.0,216.0,1.0,Rest
7539.69091796875,7479.609375,7868.9765625,7784.39794921875,7717.96826171875,7770.8974609375,7942.7373046875,8044.9296875,-0.13671875,0.957763671875,0.188720703125,-8.026122093200684,-4.577636241912842,15.991209983825684,60.0,217.0,1.0,Rest
7627.84619140625,7567.7646484375,7957.31103515625,7872.91064453125,7806.212890625,7859.767578125,8031.33984375,8133.35302734375,-0.13525390625,0.957275390625,0.19091796875,-7.415771007537842,-4.180907726287842,14.862059593200684,60.0,218.0,1.0,Rest
7764.19189453125,7704.02099609375,8094.2822265625,8009.5244140625,7942.7373046875,7996.47119140625,8167.8642578125,8269.7880859375,-0.1337890625,0.9560546875,0.189208984375,-6.683349132537842,-3.814697027206421,13.732909202575684,60.0,219.0,1.0,Rest
7992.44775390625,7932.45556640625,8323.611328125,8239.1220703125,8172.51318359375,8225.978515625,8397.640625,8500.0107421875,-0.132080078125,0.957763671875,0.189697265625,-6.103515148162842,-3.540038824081421,12.573241233825684,60.0,220.0,1.0,Rest
8234.025390625,8173.76513671875,8565.9931640625,8481.50390625,8415.07421875,8468.71875,8641.005859375,8743.1982421875,-0.131103515625,0.956298828125,0.1943359375,-5.462646007537842,-3.295898199081421,11.322020530700684,60.0,221.0,1.0,Rest
8388.69921875,8328.439453125,8721.3828125,8636.71484375,8570.3740234375,8623.9296875,8796.8427734375,8899.0341796875,-0.129638671875,0.957275390625,0.192626953125,-5.004882335662842,-3.082275152206421,10.040282249450684,60.0,222.0,1.0,Rest
8478.28515625,8417.935546875,8811.416015625,8726.8369140625,8660.318359375,8713.2470703125,8886.6962890625,8988.798828125,-0.130615234375,0.955810546875,0.19140625,-4.455565929412842,-2.868652105331421,8.666991233825684,60.0,223.0,1.0,Rest
8613.2900390625,8552.76171875,8946.8671875,8862.109375,8795.5009765625,8848.876953125,9022.3271484375,9124.33984375,-0.129638671875,0.95654296875,0.191650390625,-3.967284917831421,-2.624511480331421,7.446288585662842,60.0,224.0,1.0,Rest
8839.0419921875,8778.7822265625,9173.513671875,9088.9345703125,9022.9521484375,9076.060546875,9249.7783203125,9351.7919921875,-0.12939453125,0.95458984375,0.193359375,-3.387450933456421,-2.349853277206421,6.286620616912842,60.0,225.0,1.0,Rest
9080.083984375,9019.4658203125,9415.1806640625,9330.5126953125,9264.6201171875,9317.81640625,9491.5341796875,9594.263671875,-0.129638671875,0.954833984375,0.194091796875,-2.716064214706421,-2.166747808456421,5.187987804412842,60.0,226.0,1.0,Rest
9230.734375,9169.4013671875,9566.279296875,9481.1630859375,9415.091796875,9468.646484375,9642.6328125,9745.1826171875,-0.129150390625,0.955078125,0.19384765625,-2.014159917831421,-1.6784666776657104,3.967284917831421,60.0,227.0,1.0,Rest
9320.0517578125,9258.4501953125,9655.775390625,9570.927734375,9505.2138671875,9558.6796875,9732.0390625,9834.767578125,-0.128173828125,0.9580078125,0.19384765625,-1.5258787870407104,-1.4953612089157104,2.777099370956421,60.0,228.0,1.0,Rest
9456.0400390625,9394.259765625,9792.12109375,9707.005859375,9641.73828125,9694.845703125,9868.474609375,9971.3818359375,-0.1279296875,0.957763671875,0.196044921875,-0.9460448622703552,-1.2207030057907104,1.6784666776657104,60.0,229.0,1.0,Rest
9686.888671875,9625.1982421875,10023.953125,9938.48046875,9873.5703125,9926.6787109375,10100.6640625,10203.482421875,-0.128662109375,0.958984375,0.195068359375,-0.2441406100988388,-0.8239745497703552,0.5187987685203552,60.0,230.0,1.0,Rest
9933.3837890625,9871.7822265625,10271.1630859375,10185.958984375,10120.6025390625,10173.978515625,10347.78515625,10450.87109375,-0.13037109375,0.95947265625,0.19140625,0.2441406100988388,-0.5187987685203552,-0.3967284858226776,60.0,231.0,1.0,Rest
10076.255859375,10013.939453125,10414.0361328125,10329.009765625,10263.5634765625,10317.029296875,10491.1044921875,10594.2802734375,-0.1318359375,0.959716796875,0.193115234375,0.6103515028953552,-0.3662109076976776,-1.3732908964157104,60.0,232.0,1.0,Rest
10160.74609375,10098.6083984375,10499.419921875,10413.767578125,10348.7685546875,10402.14453125,10576.578125,10679.6640625,-0.130615234375,0.9609375,0.19287109375,0.9765624403953552,-0.3662109076976776,-2.380370855331421,60.0,233.0,1.0,Rest
10303.7080078125,10242.1064453125,10643.0068359375,10557.4443359375,10492.53515625,10546.08984375,10720.6123046875,10823.4306640625,-0.133544921875,0.960205078125,0.191162109375,1.4038084745407104,-0.2746581733226776,-3.387450933456421,60.0,234.0,1.0,Rest
10523.1123046875,10461.421875,10862.9482421875,10777.4755859375,10712.6552734375,10766.2998046875,10940.5537109375,11043.4609375,-0.13623046875,0.95751953125,0.19189453125,1.7395018339157104,-0.0610351525247097,-4.241942882537842,60.0,235.0,1.0,Rest
10759.0576171875,10697.4560546875,11099.3408203125,11013.95703125,10949.13671875,11002.9599609375,11177.482421875,11280.568359375,-0.134765625,0.956787109375,0.19140625,2.136230230331421,0.3051757514476776,-5.187987804412842,60.0,236.0,1.0,Rest
10908.009765625,10845.9609375,11248.4716796875,11163.1767578125,11098.5361328125,11152.0908203125,11326.7919921875,11429.8779296875,-0.137939453125,0.95849609375,0.1904296875,2.563476324081421,0.4577636420726776,-5.950927257537842,60.0,237.0,1.0,Rest
10991.7841796875,10929.7353515625,11332.6923828125,11247.4873046875,11182.935546875,11236.4013671875,11411.1025390625,11513.9208984375,-0.13916015625,0.95947265625,0.18994140625,3.051757574081421,0.7324218153953552,-6.652831554412842,60.0,238.0,1.0,Rest
11118.0263671875,11056.3359375,11459.650390625,11374.4453125,11309.6259765625,11363.26953125,11538.060546875,11640.87890625,-0.139892578125,0.958251953125,0.18896484375,3.356933355331421,0.8850097060203552,-7.324218273162842,60.0,239.0,1.0,Rest
11335.732421875,11273.416015625,11677.8037109375,11592.330078125,11527.599609375,11581.6015625,11756.392578125,11859.478515625,-0.14111328125,0.958740234375,0.1875,3.723144292831421,1.0681151151657104,-8.026122093200684,60.0,240.0,1.0,Rest
11571.9453125,11509.271484375,11914.1953125,11828.9013671875,11764.259765625,11818.5302734375,11993.1416015625,12096.49609375,-0.14208984375,0.9609375,0.187744140625,3.997802495956421,1.1291502714157104,-8.514403343200684,60.0,241.0,1.0,Rest
11719.556640625,11656.9716796875,12062.1640625,11976.69140625,11912.4072265625,11966.3203125,12140.6630859375,12244.7333984375,-0.143798828125,0.963623046875,0.18505859375,4.211425304412842,1.2512205839157104,-9.033202171325684,60.0,242.0,1.0,Rest
11800.0224609375,11737.6171875,12143.1669921875,12057.693359375,11993.41015625,12046.96484375,12221.5771484375,12325.736328125,-0.1455078125,0.963134765625,0.1865234375,4.333495616912842,1.3732908964157104,-9.552000999450684,60.0,243.0,1.0,Rest
11915.6259765625,11853.2197265625,12259.216796875,12173.4755859375,12109.6396484375,12163.1044921875,12337.716796875,12441.96484375,-0.147216796875,0.9609375,0.184814453125,4.455565929412842,1.4953612089157104,-9.918211936950684,60.0,244.0,1.0,Rest
12125.4638671875,12062.25390625,12469.501953125,12383.4033203125,12320.013671875,12373.7470703125,12548.806640625,12652.33984375,-0.1494140625,0.95849609375,0.182861328125,4.730224132537842,1.5869139432907104,-10.192870140075684,60.0,245.0,1.0,Rest
12360.1572265625,12297.0361328125,12705.0,12619.080078125,12555.51171875,12609.3349609375,12784.572265625,12887.9267578125,-0.15087890625,0.958251953125,0.181884765625,4.913329601287842,1.6479490995407104,-10.375975608825684,60.0,246.0,1.0,Rest
12510.9873046875,12447.6875,12856.0986328125,12770.267578125,12706.341796875,12760.701171875,12935.669921875,13039.2041015625,-0.15234375,0.961181640625,0.183837890625,5.035399913787842,1.7700194120407104,-10.498045921325684,60.0,247.0,1.0,Rest
12592.794921875,12529.494140625,12937.7265625,12851.9853515625,12788.23828125,12842.240234375,13017.4775390625,13121.189453125,-0.152099609375,0.962158203125,0.18310546875,5.279540538787842,1.9836424589157104,-10.589598655700684,60.0,248.0,1.0,Rest
12710.4541015625,12646.9755859375,13055.9228515625,12970.181640625,12906.7021484375,12960.4365234375,13135.31640625,13239.296875,-0.153564453125,0.96240234375,0.180419921875,5.371093273162842,2.044677495956421,-10.650633811950684,60.0,249.0,1.0,Rest
12916.26953125,12852.7900390625,13262.5419921875,13176.6220703125,13113.322265625,13167.234375,13341.66796875,13446.005859375,-0.157958984375,0.962158203125,0.1796875,5.401610851287842,2.044677495956421,-10.711668968200684,60.0,250.0,1.0,Rest
13148.01171875,13084.533203125,13494.5537109375,13408.8125,13345.4228515625,13399.603515625,13574.4833984375,13678.642578125,-0.15869140625,0.96337890625,0.182373046875,5.187987804412842,1.7700194120407104,-10.833739280700684,60.0,251.0,1.0,Rest
13281.4970703125,13218.017578125,13628.57421875,13542.4755859375,13479.0859375,13533.3564453125,13708.3251953125,13812.57421875,-0.161376953125,0.9609375,0.1787109375,5.065917491912842,1.4953612089157104,-10.925292015075684,60.0,252.0,1.0,Rest
13358.38671875,13294.9072265625,13705.732421875,13619.6337890625,13556.69140625,13610.603515625,13785.4833984375,13889.732421875,-0.162109375,0.9619140625,0.18212890625,4.821776866912842,1.4038084745407104,-10.925292015075684,60.0,253.0,1.0,Rest
13494.8212890625,13431.521484375,13842.7041015625,13756.3369140625,13693.6630859375,13747.75390625,13922.1875,14027.0615234375,-0.1630859375,0.9638671875,0.181640625,4.821776866912842,1.4953612089157104,-10.620116233825684,60.0,254.0,1.0,Rest
13718.7861328125,13655.396484375,14067.3837890625,13981.1064453125,13917.8056640625,13972.43359375,14147.3134765625,14252.009765625,-0.162841796875,0.965087890625,0.181884765625,4.882812023162842,1.6174315214157104,-10.345458030700684,60.0,255.0,1.0,Rest
13961.4365234375,13897.5107421875,14310.0341796875,14224.2041015625,14160.9931640625,14215.53125,14390.322265625,14494.7490234375,-0.16357421875,0.962890625,0.177001953125,4.913329601287842,1.5869139432907104,-10.009764671325684,60.0,256.0,1.0,Rest
14101.8056640625,14037.701171875,14450.671875,14364.4833984375,14301.541015625,14355.9892578125,14530.51171875,14635.38671875,-0.166015625,0.961669921875,0.175537109375,4.760741710662842,1.5563963651657104,-9.674071311950684,60.0,257.0,1.0,Rest
14181.7353515625,14117.7197265625,14530.3330078125,14444.234375,14381.380859375,14436.1875,14610.2626953125,14715.40625,-0.166748046875,0.962646484375,0.1767578125,4.577636241912842,1.4343260526657104,-9.338377952575684,60.0,258.0,1.0,Rest
14312.5380859375,14248.1650390625,14660.95703125,14575.39453125,14512.18359375,14567.4375,14741.333984375,14846.5654296875,-0.169677734375,0.96240234375,0.1767578125,4.425048351287842,1.3427733182907104,-9.002684593200684,60.0,259.0,1.0,Rest
14521.5712890625,14457.466796875,14871.0634765625,14785.322265625,14722.46875,14777.275390625,14951.4404296875,15056.76171875,-0.170654296875,0.96240234375,0.177001953125,4.211425304412842,1.1596678495407104,-8.697508811950684,60.0,260.0,1.0,Rest
14755.37109375,14691.4443359375,15105.6669921875,15019.7470703125,14956.71484375,15011.3427734375,15185.955078125,15291.2763671875,-0.16796875,0.961669921875,0.179443359375,4.150390148162842,1.1291502714157104,-8.392333030700684,60.0,261.0,1.0,Rest
14908.5244140625,14844.3310546875,15258.9111328125,15172.6328125,15109.6904296875,15165.033203125,15338.9296875,15444.4306640625,-0.167724609375,0.963623046875,0.176513671875,4.302978038787842,1.2512205839157104,-8.087157249450684,60.0,262.0,1.0,Rest
14992.9248046875,14928.9990234375,15343.2216796875,15257.2119140625,15194.359375,15249.7021484375,15421.5419921875,15526.7744140625,-0.166259765625,0.962158203125,0.175048828125,3.997802495956421,1.1901854276657104,-8.148192405700684,60.0,263.0,1.0,Rest
15095.83203125,15031.8173828125,15445.4140625,15358.8681640625,15298.0712890625,15352.8779296875,15514.435546875,15620.025390625,-0.16845703125,0.962158203125,0.1728515625,3.784179449081421,1.0070799589157104,-7.965087413787842,60.0,264.0,1.0,Rest
15291.9912109375,15227.529296875,15629.591796875,15543.314453125,15493.8720703125,15549.39453125,15710.6845703125,15816.8994140625,-0.17041015625,0.963623046875,0.1748046875,3.540038824081421,0.7324218153953552,-7.843017101287842,60.0,265.0,1.0,Rest
15516.4033203125,15451.9404296875,15853.466796875,15767.1005859375,15715.7802734375,15771.212890625,15948.0595703125,16053.560546875,-0.170166015625,0.96240234375,0.172607421875,3.540038824081421,0.7324218153953552,-7.690429210662842,60.0,266.0,1.0,Rest
15655.251953125,15591.1474609375,16009.7509765625,15923.2939453125,15847.65625,15902.283203125,16091.2900390625,16196.7900390625,-0.168701171875,0.960205078125,0.17578125,3.479003667831421,0.7934569716453552,-7.446288585662842,60.0,267.0,1.0,Rest
15720.51953125,15655.609375,16080.29296875,15993.92578125,15906.9326171875,15961.11328125,16161.2958984375,16266.7958984375,-0.168701171875,0.961181640625,0.17578125,3.448486089706421,0.7019042372703552,-7.202147960662842,60.0,268.0,1.0,Rest
15801.96875,15736.34375,16178.283203125,16091.6474609375,16007.2470703125,16061.78515625,16259.017578125,16364.607421875,-0.16943359375,0.96240234375,0.176025390625,3.356933355331421,0.7629393935203552,-6.927489757537842,60.0,269.0,1.0,Rest
15956.0166015625,15890.1240234375,16363.1767578125,16276.8095703125,16207.9658203125,16263.1298828125,16441.5859375,16546.998046875,-0.169677734375,0.9619140625,0.174560546875,3.295898199081421,0.7934569716453552,-6.652831554412842,60.0,270.0,1.0,Rest
16218.60546875,16153.427734375,16572.388671875,16485.396484375,16437.205078125,16492.81640625,16648.294921875,16752.990234375,-0.170654296875,0.96142578125,0.17529296875,3.143310308456421,0.6713866591453552,-6.561278820037842,60.0,271.0,1.0,Rest
16370.2392578125,16305.0615234375,16682.806640625,16594.830078125,16573.998046875,16630.056640625,16792.240234375,16897.5625,-0.1728515625,0.960205078125,0.17626953125,3.021239995956421,0.5493163466453552,-6.347655773162842,60.0,272.0,1.0,Rest
16435.953125,16370.7763671875,16758.17578125,16670.916015625,16640.248046875,16696.216796875,16866.984375,16973.021484375,-0.1708984375,0.9619140625,0.174072265625,2.929687261581421,0.5493163466453552,-6.103515148162842,60.0,273.0,1.0,Rest
16556.7421875,16491.38671875,16907.21875,16820.8515625,16761.216796875,16816.828125,16990.09765625,17096.314453125,-0.172119140625,0.964111328125,0.173828125,2.899169683456421,0.5798339247703552,-5.828856945037842,60.0,274.0,1.0,Rest
16758.17578125,16692.91015625,17111.6015625,17025.234375,16962.203125,17017.546875,17192.783203125,17298.8203125,-0.173583984375,0.963623046875,0.174072265625,2.746581792831421,0.5493163466453552,-5.554198741912842,60.0,275.0,1.0,Rest
16985.359375,16919.64453125,17341.19921875,17254.654296875,17178.658203125,17234.8046875,17422.6484375,17528.5078125,-0.177001953125,0.962646484375,0.16943359375,2.655029058456421,0.5187987685203552,-5.401610851287842,60.0,276.0,1.0,Rest
17128.232421875,17062.697265625,17486.12890625,17399.76171875,17310.80078125,17367.396484375,17567.66796875,17673.8828125,-0.17578125,0.95947265625,0.169921875,2.563476324081421,0.3662109076976776,-5.218505382537842,60.0,277.0,1.0,Rest
17204.853515625,17139.138671875,17559.53125,17472.984375,17403.60546875,17459.931640625,17640.802734375,17747.46484375,-0.17626953125,0.958984375,0.16845703125,2.380370855331421,0.2136230319738388,-5.035399913787842,60.0,278.0,1.0,Rest
17309.90625,17244.193359375,17663.779296875,17577.32421875,17514.91796875,17571.154296875,17745.318359375,17851.265625,-0.17431640625,0.9609375,0.168212890625,2.258300542831421,0.1525878757238388,-4.730224132537842,60.0,279.0,1.0,Rest
17506.244140625,17440.53125,17860.921875,17774.287109375,17712.685546875,17768.654296875,17942.013671875,18048.05078125,-0.176025390625,0.9619140625,0.169189453125,2.166747808456421,0.2746581733226776,-4.302978038787842,60.0,280.0,1.0,Rest
17734.232421875,17668.33984375,18089.177734375,18002.36328125,17940.673828125,17996.73046875,18170.001953125,18276.6640625,-0.176025390625,0.96240234375,0.17041015625,2.044677495956421,0.2136230319738388,-4.089354991912842,60.0,281.0,1.0,Rest
17876.92578125,17810.853515625,18231.9609375,18145.056640625,18083.3671875,18139.603515625,18312.875,18419.716796875,-0.17626953125,0.962890625,0.1689453125,1.7700194120407104,0.1525878757238388,-3.753661870956421,60.0,282.0,1.0,Rest
17944.33984375,17878.53515625,18299.28515625,18212.470703125,18151.31640625,18207.10546875,18380.64453125,18487.306640625,-0.1787109375,0.963623046875,0.169921875,1.6174315214157104,-0.03051757626235485,-3.417968511581421,60.0,283.0,1.0,Rest
18043.580078125,17977.77734375,18398.884765625,18311.890625,18250.37890625,18306.705078125,18479.88671875,18586.638671875,-0.179443359375,0.9638671875,0.167236328125,1.4038084745407104,-0.2136230319738388,-3.112792730331421,60.0,284.0,1.0,Rest
18239.3828125,18173.310546875,18594.685546875,18507.69140625,18446.26953125,18502.865234375,18675.599609375,18782.619140625,-0.179931640625,0.961669921875,0.17041015625,1.2207030057907104,-0.2746581733226776,-2.868652105331421,60.0,285.0,1.0,Rest
18468.62109375,18402.103515625,18824.193359375,18736.931640625,18675.6875,18732.37109375,18905.46484375,19012.3046875,-0.1796875,0.962158203125,0.172119140625,1.0070799589157104,-0.3662109076976776,-2.410888433456421,60.0,286.0,1.0,Rest
18611.583984375,18545.064453125,18967.51171875,18880.251953125,18818.828125,18875.78125,19048.693359375,19155.802734375,-0.178466796875,0.961181640625,0.17138671875,0.9765624403953552,-0.4272460639476776,-2.166747808456421,60.0,287.0,1.0,Rest
18679.443359375,18612.923828125,19035.55078125,18948.37890625,18886.95703125,18943.640625,19116.642578125,19223.931640625,-0.17919921875,0.96240234375,0.169189453125,0.8850097060203552,-0.5187987685203552,-1.6784666776657104,60.0,288.0,1.0,Rest
18773.587890625,18707.16015625,19129.427734375,19042.525390625,18981.37109375,19037.517578125,19210.609375,19317.80859375,-0.177490234375,0.962158203125,0.16943359375,0.5798339247703552,-0.5798339247703552,-1.4038084745407104,60.0,289.0,1.0,Rest
18962.23828125,18895.62890625,19318.435546875,19231.3515625,19170.466796875,19226.61328125,19399.4375,19506.904296875,-0.177001953125,0.963134765625,0.169189453125,0.4272460639476776,-0.6713866591453552,-1.0375975370407104,60.0,290.0,1.0,Rest
19187.72265625,19121.3828125,19544.634765625,19457.640625,19396.486328125,19452.814453125,19625.1015625,19732.92578125,-0.177734375,0.965087890625,0.17041015625,0.1831054538488388,-0.7934569716453552,-0.5798339247703552,60.0,291.0,1.0,Rest
19319.775390625,19252.630859375,19676.599609375,19589.427734375,19528.18359375,19584.419921875,19756.9765625,19864.890625,-0.17724609375,0.9619140625,0.170654296875,0.0610351525247097,-0.9155272841453552,-0.3051757514476776,60.0,292.0,1.0,Rest
19380.572265625,19313.517578125,19737.57421875,19650.4921875,19589.337890625,19645.6640625,19818.220703125,19925.955078125,-0.1767578125,0.9619140625,0.169921875,-0.2136230319738388,-1.0070799589157104,0.0915527269244194,60.0,293.0,1.0,Rest
19484.28515625,19417.318359375,19841.46484375,19754.65234375,19693.318359375,19749.912109375,19922.37890625,20029.755859375,-0.17822265625,0.962158203125,0.170166015625,-0.3662109076976776,-1.0681151151657104,0.3967284858226776,60.0,294.0,1.0,Rest
19671.4140625,19604.447265625,20029.220703125,19941.958984375,19880.537109375,19937.578125,20109.775390625,20217.779296875,-0.178955078125,0.960205078125,0.171142578125,-0.5798339247703552,-1.0681151151657104,0.7324218153953552,60.0,295.0,1.0,Rest
19897.076171875,19829.841796875,20254.615234375,20167.533203125,20106.19921875,20163.0625,20335.349609375,20443.7109375,-0.17724609375,0.959716796875,0.17138671875,-0.5798339247703552,-1.1291502714157104,1.0986326932907104,60.0,296.0,1.0,Rest
20039.0546875,19971.8203125,20396.50390625,20309.6015625,20248.267578125,20305.21875,20477.060546875,20585.689453125,-0.17626953125,0.960205078125,0.170166015625,-0.7019042372703552,-1.2207030057907104,1.3122557401657104,60.0,297.0,1.0,Rest
20101.013671875,20033.69140625,20458.642578125,20371.6484375,20310.40625,20367.447265625,20539.197265625,20647.828125,-0.17626953125,0.962890625,0.172119140625,-0.7934569716453552,-1.1596678495407104,1.6479490995407104,60.0,298.0,1.0,Rest
20189.34765625,20122.203125,20547.423828125,20460.33984375,20399.365234375,20456.318359375,20628.158203125,20736.697265625,-0.176025390625,0.963623046875,0.171142578125,-0.8850097060203552,-1.1901854276657104,1.8920897245407104,60.0,299.0,1.0,Rest
20374.33203125,20307.365234375,20732.763671875,20645.501953125,20584.705078125,20641.568359375,20813.3203125,20921.591796875,-0.174560546875,0.963623046875,0.16943359375,-0.9460448622703552,-1.2207030057907104,2.075195074081421,60.0,300.0,1.0,Rest
20599.904296875,20532.58203125,20958.248046875,20870.71875,20810.279296875,20867.142578125,21038.625,21147.5234375,-0.17529296875,0.962646484375,0.172607421875,-1.1901854276657104,-1.3122557401657104,2.166747808456421,60.0,301.0,1.0,Rest
20740.990234375,20673.21875,21098.974609375,21012.072265625,20951.453125,21008.31640625,21179.619140625,21288.96484375,-0.177734375,0.9599609375,0.173828125,-1.2817381620407104,-1.3732908964157104,2.288818120956421,60.0,302.0,1.0,Rest
20802.14453125,20734.552734375,21159.951171875,21073.13671875,21012.697265625,21069.560546875,21240.7734375,21350.029296875,-0.176025390625,0.95947265625,0.176025390625,-1.3122557401657104,-1.4343260526657104,2.410888433456421,60.0,303.0,1.0,Rest
20890.388671875,20822.88671875,21248.462890625,21161.201171875,21100.8515625,21158.162109375,21329.197265625,21438.2734375,-0.174072265625,0.960205078125,0.17529296875,-1.3427733182907104,-1.4953612089157104,2.471923589706421,60.0,304.0,1.0,Rest
21073.494140625,21005.8125,21432.015625,21344.666015625,21284.404296875,21341.53515625,21512.03515625,21621.826171875,-0.17431640625,0.95947265625,0.172607421875,-1.3427733182907104,-1.4038084745407104,2.593993902206421,60.0,305.0,1.0,Rest
21299.068359375,21231.56640625,21657.857421875,21570.955078125,21510.24609375,21567.736328125,21738.056640625,21847.7578125,-0.173095703125,0.9599609375,0.170654296875,-1.3427733182907104,-1.3427733182907104,2.716064214706421,60.0,306.0,1.0,Rest
21435.234375,21367.552734375,21794.11328125,21707.03125,21646.146484375,21703.90234375,21874.580078125,21984.193359375,-0.17138671875,0.960205078125,0.173095703125,-1.3732908964157104,-1.3732908964157104,2.868652105331421,60.0,307.0,1.0,Rest
21488.521484375,21420.662109375,21847.490234375,21760.228515625,21699.341796875,21757.099609375,21928.044921875,22037.748046875,-0.172119140625,0.960693359375,0.173828125,-1.4648436307907104,-1.3732908964157104,2.868652105331421,60.0,308.0,1.0,Rest
21590.712890625,21522.673828125,21949.681640625,21862.421875,21801.982421875,21859.470703125,22030.23828125,22140.029296875,-0.173583984375,0.960693359375,0.17236328125,-1.4648436307907104,-1.4343260526657104,2.807616949081421,60.0,309.0,1.0,Rest
21778.109375,21709.892578125,22137.34765625,22049.908203125,21989.37890625,22046.95703125,22217.814453125,22327.427734375,-0.171875,0.959716796875,0.175048828125,-1.4343260526657104,-1.4648436307907104,2.807616949081421,60.0,310.0,1.0,Rest
22004.310546875,21935.9140625,22363.45703125,22276.375,22215.84765625,22273.783203125,22444.19140625,22553.984375,-0.172119140625,0.95947265625,0.17578125,-1.4343260526657104,-1.4038084745407104,2.716064214706421,60.0,311.0,1.0,Rest
22148.43359375,22079.94921875,22507.58203125,22420.677734375,22360.150390625,22418.0859375,22588.40625,22698.287109375,-0.170166015625,0.958740234375,0.1748046875,-1.3732908964157104,-1.4648436307907104,2.593993902206421,60.0,312.0,1.0,Rest
22211.734375,22143.0703125,22571.150390625,22483.978515625,22423.361328125,22481.384765625,22651.794921875,22761.498046875,-0.16845703125,0.958740234375,0.175048828125,-1.2512205839157104,-1.4038084745407104,2.532958745956421,60.0,313.0,1.0,Rest
22297.296875,22228.275390625,22656.4453125,22569.18359375,22508.744140625,22567.037109375,22736.732421875,22846.61328125,-0.168701171875,0.961669921875,0.1748046875,-1.0375975370407104,-1.2207030057907104,2.319335699081421,60.0,314.0,1.0,Rest
22477.36328125,22408.607421875,22836.779296875,22749.427734375,22688.8984375,22747.37109375,22916.88671875,23027.125,-0.16796875,0.962646484375,0.173583984375,-1.0070799589157104,-1.1901854276657104,2.136230230331421,60.0,315.0,1.0,Rest
22701.326171875,22632.572265625,23060.654296875,22973.392578125,22912.953125,22971.515625,23141.03125,23251.1796875,-0.16748046875,0.96240234375,0.174072265625,-0.9460448622703552,-1.1901854276657104,2.136230230331421,60.0,316.0,1.0,Rest
22846.076171875,22777.412109375,23206.296875,23118.677734375,23058.150390625,23116.7109375,23286.138671875,23396.376953125,-0.167724609375,0.96142578125,0.174072265625,-0.8544921278953552,-1.2512205839157104,1.8920897245407104,60.0,317.0,1.0,Rest
22911.076171875,22842.322265625,23271.564453125,23183.767578125,23123.505859375,23181.978515625,23350.95703125,23461.732421875,-0.16845703125,0.9619140625,0.173828125,-0.9155272841453552,-1.2817381620407104,1.4953612089157104,60.0,318.0,1.0,Rest
22994.044921875,22924.93359375,23354.265625,23266.646484375,23206.296875,23264.6796875,23433.66015625,23544.5234375,-0.166015625,0.961181640625,0.17724609375,-0.8850097060203552,-1.2512205839157104,1.4343260526657104,60.0,319.0,1.0,Rest
23169.8203125,23100.70703125,23530.041015625,23442.33203125,23381.982421875,23440.6328125,23609.34375,23720.38671875,-0.16650390625,0.95751953125,0.17626953125,-0.9155272841453552,-1.2817381620407104,1.3427733182907104,60.0,320.0,1.0,Rest
23395.392578125,23326.19140625,23756.060546875,23668.083984375,23607.64453125,23666.296875,23835.09765625,23946.23046875,-0.166015625,0.957763671875,0.177001953125,-0.8239745497703552,-1.1596678495407104,1.0375975370407104,60.0,321.0,1.0,Rest
23544.5234375,23474.96484375,23904.833984375,23817.125,23757.044921875,23815.517578125,23984.048828125,24095.091796875,-0.165771484375,0.95947265625,0.17529296875,-0.6103515028953552,-1.0681151151657104,0.8850097060203552,60.0,322.0,1.0,Rest
23605.5,23536.119140625,23966.255859375,23878.458984375,23818.376953125,23876.671875,24045.3828125,24156.515625,-0.167724609375,0.95947265625,0.1728515625,-0.4272460639476776,-1.0375975370407104,0.7019042372703552,60.0,323.0,1.0,Rest
23683.552734375,23614.26171875,24044.30859375,23956.421875,23896.609375,23954.90234375,24123.5234375,24234.74609375,-0.168212890625,0.95947265625,0.173828125,-0.3967284858226776,-0.9765624403953552,0.6713866591453552,60.0,324.0,1.0,Rest
23857.896484375,23787.978515625,24218.205078125,24130.765625,24070.505859375,24129.423828125,24297.599609375,24409.08984375,-0.167236328125,0.960693359375,0.17724609375,-0.3967284858226776,-0.9460448622703552,0.5187987685203552,60.0,325.0,1.0,Rest
24080.33984375,24010.513671875,24441.0078125,24353.388671875,24293.306640625,24352.31640625,24520.400390625,24632.0703125,-0.16455078125,0.9599609375,0.177001953125,-0.2136230319738388,-0.9765624403953552,0.3356933295726776,60.0,326.0,1.0,Rest
24222.408203125,24152.759765625,24583.5234375,24495.3671875,24435.912109375,24494.47265625,24662.291015625,24774.228515625,-0.1650390625,0.957763671875,0.17529296875,-0.1220703050494194,-0.9765624403953552,0.1220703050494194,60.0,327.0,1.0,Rest
24273.369140625,24203.990234375,24634.484375,24546.41796875,24486.78515625,24545.435546875,24712.89453125,24825.099609375,-0.166259765625,0.95849609375,0.176025390625,-0.1525878757238388,-0.9460448622703552,-0.0610351525247097,60.0,328.0,1.0,Rest
24359.826171875,24289.91015625,24720.8515625,24633.142578125,24573.330078125,24631.892578125,24799.3515625,24911.646484375,-0.1669921875,0.9599609375,0.17529296875,0.0,-0.9460448622703552,-0.1220703050494194,60.0,329.0,1.0,Rest
24533.6328125,24463.716796875,24895.10546875,24806.681640625,24747.048828125,24806.056640625,24973.248046875,25085.720703125,-0.16796875,0.960693359375,0.17578125,0.03051757626235485,-0.7629393935203552,-0.3051757514476776,60.0,330.0,1.0,Rest
24755.09375,24685.357421875,25116.923828125,25028.412109375,24968.95703125,25028.412109375,25194.9765625,25307.451171875,-0.168212890625,0.958984375,0.176025390625,0.1525878757238388,-0.7019042372703552,-0.4577636420726776,60.0,331.0,1.0,Rest
24901.275390625,24831.08984375,25263.015625,25174.681640625,25115.673828125,25174.4140625,25341.158203125,25453.541015625,-0.167724609375,0.9599609375,0.1728515625,0.2441406100988388,-0.5493163466453552,-0.5798339247703552,60.0,332.0,1.0,Rest
24958.673828125,24888.9375,25320.861328125,25232.259765625,25172.892578125,25232.080078125,25399.00390625,25511.478515625,-0.16796875,0.962158203125,0.172119140625,0.3356933295726776,-0.5493163466453552,-0.6408690810203552,60.0,333.0,1.0,Rest
25030.556640625,24960.998046875,25392.4765625,25304.322265625,25244.865234375,25304.142578125,25471.06640625,25583.62890625,-0.168212890625,0.96142578125,0.1728515625,0.3051757514476776,-0.6408690810203552,-0.7934569716453552,60.0,334.0,1.0,Rest
25196.5859375,25126.580078125,25558.23828125,25470.26171875,25411.07421875,25470.171875,25636.646484375,25749.12109375,-0.169921875,0.9609375,0.1728515625,0.2441406100988388,-0.7019042372703552,-0.9460448622703552,60.0,335.0,1.0,Rest
25411.07421875,25340.7109375,25772.546875,25683.765625,25625.29296875,25684.390625,25850.59765625,25963.51953125,-0.170166015625,0.95947265625,0.17236328125,0.2441406100988388,-0.6713866591453552,-1.0681151151657104,60.0,336.0,1.0,Rest
25550.28125,25480.36328125,25912.021484375,25823.240234375,25764.947265625,25823.955078125,25990.162109375,26103.44140625,-0.171630859375,0.958984375,0.173828125,0.3662109076976776,-0.7629393935203552,-0.9765624403953552,60.0,337.0,1.0,Rest
25601.95703125,25532.30859375,25964.14453125,25875.54296875,25817.0703125,25876.16796875,26042.376953125,26155.654296875,-0.1708984375,0.9609375,0.1767578125,0.3662109076976776,-0.7629393935203552,-0.8544921278953552,60.0,338.0,1.0,Rest
25666.599609375,25596.681640625,26028.787109375,25940.36328125,25881.443359375,25940.810546875,26106.927734375,26220.1171875,-0.171142578125,0.96044921875,0.177001953125,0.4577636420726776,-0.5187987685203552,-0.9155272841453552,60.0,339.0,1.0,Rest
25827.7109375,25757.16796875,26189.8984375,26101.474609375,26042.64453125,26102.099609375,26267.681640625,26380.9609375,-0.17138671875,0.962646484375,0.173828125,0.5187987685203552,-0.4882812201976776,-0.8850097060203552,60.0,340.0,1.0,Rest
26044.25390625,25973.7109375,26406.44140625,26317.927734375,26259.099609375,26318.5546875,26484.046875,26597.59375,-0.171142578125,0.962890625,0.173095703125,0.4272460639476776,-0.6103515028953552,-0.7934569716453552,60.0,341.0,1.0,Rest
26193.65234375,26123.111328125,26555.9296875,26467.05859375,26408.498046875,26467.953125,26633.625,26747.08203125,-0.171630859375,0.961181640625,0.172607421875,0.1831054538488388,-0.7324218153953552,-0.7629393935203552,60.0,342.0,1.0,Rest
26250.6953125,26180.2421875,26613.240234375,26524.369140625,26465.80859375,26525.173828125,26690.576171875,26804.48046875,-0.17041015625,0.960205078125,0.17041015625,0.0610351525247097,-0.8239745497703552,-0.6408690810203552,60.0,343.0,1.0,Rest
26319.001953125,26248.548828125,26681.814453125,26592.9453125,26534.205078125,26593.75,26758.97265625,26872.876953125,-0.1708984375,0.959716796875,0.171875,0.0,-0.9460448622703552,-0.6713866591453552,60.0,344.0,1.0,Rest
26485.119140625,26414.30859375,26847.6640625,26758.705078125,26700.322265625,26759.77734375,26924.64453125,27039.0859375,-0.169921875,0.959228515625,0.176513671875,0.0610351525247097,-0.8544921278953552,-0.5798339247703552,60.0,345.0,1.0,Rest
26708.994140625,26637.826171875,27071.361328125,26982.490234375,26924.287109375,26983.65234375,27148.51953125,27263.138671875,-0.169677734375,0.95849609375,0.173095703125,0.2136230319738388,-0.6408690810203552,-0.5187987685203552,60.0,346.0,1.0,Rest
26851.77734375,26780.966796875,27214.681640625,27125.18359375,27067.6953125,27127.0625,27291.83984375,27406.19140625,-0.168212890625,0.95751953125,0.171630859375,0.2746581733226776,-0.6103515028953552,-0.5798339247703552,60.0,347.0,1.0,Rest
26907.03125,26836.310546875,27270.291015625,27180.4375,27123.126953125,27182.494140625,27347.181640625,27461.712890625,-0.168701171875,0.960205078125,0.172607421875,0.3356933295726776,-0.4577636420726776,-0.5187987685203552,60.0,348.0,1.0,Rest
26991.7890625,26920.80078125,27354.87109375,27265.10546875,27207.439453125,27266.984375,27431.849609375,27546.291015625,-0.171142578125,0.963623046875,0.173095703125,0.3662109076976776,-0.4882812201976776,-0.6103515028953552,60.0,349.0,1.0,Rest
27157.638671875,27086.740234375,27521.078125,27431.40234375,27373.82421875,27433.01171875,27598.236328125,27712.498046875,-0.16943359375,0.964111328125,0.16943359375,0.3356933295726776,-0.4882812201976776,-0.5798339247703552,60.0,350.0,1.0,Rest
27382.318359375,27311.5078125,27746.02734375,27656.44140625,27598.416015625,27657.87109375,27822.826171875,27937.267578125,-0.16943359375,0.96337890625,0.17138671875,0.2746581733226776,-0.5798339247703552,-0.6408690810203552,60.0,351.0,1.0,Rest
27540.748046875,27469.400390625,27904.0078125,27814.69140625,27756.486328125,27816.2109375,27980.80859375,28095.607421875,-0.170166015625,0.963134765625,0.17333984375,0.2136230319738388,-0.7629393935203552,-0.6103515028953552,60.0,352.0,1.0,Rest
27514.10546875,27443.025390625,27877.6328125,27788.2265625,27730.111328125,27789.74609375,27954.166015625,28069.412109375,-0.17041015625,0.9599609375,0.18017578125,0.03051757626235485,-0.7324218153953552,-0.5798339247703552,60.0,353.0,1.0,Rest
27304.4453125,27233.814453125,27667.794921875,27578.388671875,27520.541015625,27579.728515625,27744.41796875,27859.3046875,-0.16943359375,0.957275390625,0.177734375,0.1831054538488388,-0.5798339247703552,-0.5187987685203552,60.0,354.0,1.0,Rest
27280.662109375,27209.763671875,27643.56640625,27554.248046875,27496.849609375,27556.037109375,27720.634765625,27835.076171875,-0.17626953125,0.956787109375,0.174072265625,0.1831054538488388,-0.6408690810203552,-0.4577636420726776,60.0,355.0,1.0,Rest
27417.544921875,27346.556640625,27780.626953125,27691.30859375,27634.0,27693.275390625,27857.517578125,27972.31640625,-0.17724609375,0.95947265625,0.1767578125,-0.03051757626235485,-0.8239745497703552,-0.2441406100988388,60.0,356.0,1.0,Rest
27464.3046875,27393.046875,27827.38671875,27737.7109375,27680.22265625,27739.677734375,27903.830078125,28018.986328125,-0.16796875,0.957275390625,0.1796875,0.0915527269244194,-0.8239745497703552,-0.03051757626235485,60.0,357.0,1.0,Rest
27399.841796875,27328.673828125,27763.013671875,27673.16015625,27615.4921875,27675.216796875,27839.45703125,27954.5234375,-0.16650390625,0.9541015625,0.18115234375,0.4577636420726776,-0.3356933295726776,-0.2441406100988388,60.0,358.0,1.0,Rest
27382.498046875,27311.330078125,27745.580078125,27655.904296875,27598.236328125,27658.138671875,27822.380859375,27937.267578125,-0.16748046875,0.956787109375,0.174560546875,0.8239745497703552,-0.2441406100988388,-0.5493163466453552,60.0,359.0,1.0,Rest
27490.322265625,27419.51171875,27853.76171875,27763.908203125,27706.5078125,27766.232421875,27930.205078125,28045.451171875,-0.162841796875,0.963623046875,0.170654296875,0.9155272841453552,-0.2441406100988388,-0.7934569716453552,60.0,360.0,1.0,Rest
27662.966796875,27592.068359375,28026.49609375,27936.8203125,27879.2421875,27939.056640625,28102.939453125,28218.36328125,-0.162353515625,0.967529296875,0.170166015625,0.7934569716453552,-0.3051757514476776,-1.4038084745407104,60.0,361.0,1.0,Rest
27767.037109375,27695.51171875,28130.744140625,28040.623046875,27983.22265625,28043.125,28206.830078125,28322.611328125,-0.16015625,0.966552734375,0.170166015625,0.6103515028953552,-0.6408690810203552,-1.9836424589157104,60.0,362.0,1.0,Rest
27789.8359375,27718.041015625,28153.365234375,28063.509765625,28005.931640625,28065.56640625,28229.71875,28345.232421875,-0.165771484375,0.959228515625,0.173095703125,0.6408690810203552,-0.7324218153953552,-2.685546636581421,60.0,363.0,1.0,Rest
27862.166015625,27790.193359375,28225.337890625,28135.572265625,28078.53125,28137.896484375,28302.048828125,28417.3828125,-0.172119140625,0.958251953125,0.17919921875,0.6103515028953552,-0.7019042372703552,-2.807616949081421,60.0,364.0,1.0,Rest
28030.787109375,27958.994140625,28394.048828125,28304.552734375,28247.419921875,28306.787109375,28470.580078125,28586.36328125,-0.1748046875,0.958984375,0.180419921875,0.8850097060203552,-0.3967284858226776,-2.716064214706421,60.0,365.0,1.0,Rest
28250.908203125,28179.11328125,28614.525390625,28524.76171875,28467.71875,28527.17578125,28690.7890625,28806.9296875,-0.182373046875,0.95947265625,0.17431640625,1.0986326932907104,-0.1525878757238388,-2.258300542831421,60.0,366.0,1.0,Rest
28383.677734375,28312.419921875,28747.5625,28657.44140625,28600.66796875,28660.5703125,28824.005859375,28940.146484375,-0.181396484375,0.962158203125,0.1708984375,0.7019042372703552,-0.3356933295726776,-1.6174315214157104,60.0,367.0,1.0,Rest
28407.638671875,28336.55859375,28771.61328125,28681.40234375,28624.806640625,28684.7109375,28847.87890625,28963.83984375,-0.17919921875,0.96337890625,0.166259765625,0.2136230319738388,-0.8544921278953552,-1.0986326932907104,60.0,368.0,1.0,Rest
28456.8125,28385.5546875,28820.609375,28730.75390625,28673.98046875,28733.705078125,28897.052734375,29012.923828125,-0.18017578125,0.9638671875,0.1669921875,-0.3662109076976776,-1.3732908964157104,-0.5493163466453552,60.0,369.0,1.0,Rest
28591.279296875,28519.84375,28955.5234375,28865.40234375,28808.5390625,28868.44140625,29031.51953125,29147.75,-0.181884765625,0.96533203125,0.171630859375,-0.7019042372703552,-1.6174315214157104,-0.03051757626235485,60.0,370.0,1.0,Rest
28794.501953125,28722.529296875,29158.478515625,29068.35546875,29011.58203125,29071.484375,29234.384765625,29350.970703125,-0.1826171875,0.964111328125,0.17333984375,-0.8850097060203552,-1.5258787870407104,0.7324218153953552,60.0,371.0,1.0,Rest
28933.44140625,28861.556640625,29297.23828125,29207.47265625,29150.341796875,29210.423828125,29373.234375,29489.8203125,-0.17919921875,0.964111328125,0.172607421875,-0.8239745497703552,-1.2512205839157104,1.5258787870407104,60.0,372.0,1.0,Rest
28981.541015625,28909.658203125,29345.517578125,29255.751953125,29198.890625,29258.8828125,29421.513671875,29537.921875,-0.177978515625,0.963134765625,0.172607421875,-0.8239745497703552,-0.9460448622703552,2.258300542831421,60.0,373.0,1.0,Rest
29028.48046875,28956.5078125,29392.3671875,29302.423828125,29245.560546875,29305.642578125,29468.18359375,29584.501953125,-0.175537109375,0.96142578125,0.172119140625,-0.7324218153953552,-0.6408690810203552,2.807616949081421,60.0,374.0,1.0,Rest
29174.9296875,29102.95703125,29539.44140625,29449.228515625,29392.009765625,29452.359375,29614.990234375,29731.666015625,-0.175537109375,0.96044921875,0.168212890625,-1.0070799589157104,-0.7629393935203552,3.021239995956421,60.0,375.0,1.0,Rest
29385.83984375,29313.95703125,29750.708984375,29660.408203125,29603.3671875,29663.537109375,29825.900390625,29943.203125,-0.173828125,0.9599609375,0.17041015625,-1.3122557401657104,-1.2512205839157104,3.173827886581421,60.0,376.0,1.0,Rest
29543.1953125,29471.4921875,29908.06640625,29817.765625,29760.9921875,29821.162109375,29983.435546875,30100.291015625,-0.1708984375,0.962158203125,0.171142578125,-1.7089842557907104,-1.5869139432907104,3.173827886581421,60.0,377.0,1.0,Rest
29623.9296875,29551.95703125,29988.7109375,29898.052734375,29841.45703125,29901.806640625,30063.8125,30180.7578125,-0.170166015625,0.9619140625,0.173828125,-1.7700194120407104,-1.7089842557907104,3.021239995956421,60.0,378.0,1.0,Rest
29698.138671875,29626.076171875,30063.0078125,29972.259765625,29915.93359375,29976.283203125,30138.19921875,30255.501953125,-0.17236328125,0.96240234375,0.177001953125,-1.8310545682907104,-1.6479490995407104,3.173827886581421,60.0,379.0,1.0,Rest
29862.916015625,29790.673828125,30227.96484375,30137.126953125,30080.978515625,30141.060546875,30302.9765625,30420.546875,-0.17041015625,0.961669921875,0.177978515625,-1.5869139432907104,-1.4038084745407104,3.265380620956421,60.0,380.0,1.0,Rest
30094.30078125,30022.060546875,30459.439453125,30368.333984375,30312.6328125,30372.53515625,30534.2734375,30652.111328125,-0.167724609375,0.959228515625,0.1767578125,-1.2817381620407104,-1.0375975370407104,3.387450933456421,60.0,381.0,1.0,Rest
30261.58203125,30189.25,30626.71875,30535.703125,30479.82421875,30539.904296875,30701.642578125,30819.5703125,-0.16943359375,0.95751953125,0.17333984375,-1.0986326932907104,-0.9155272841453552,3.265380620956421,60.0,382.0,1.0,Rest
30327.205078125,30254.96484375,30692.43359375,30601.595703125,30545.537109375,30605.708984375,30767.892578125,30885.10546875,-0.171875,0.9599609375,0.170654296875,-1.1596678495407104,-0.9765624403953552,3.173827886581421,60.0,383.0,1.0,Rest
30377.720703125,30305.748046875,30743.39453125,30652.201171875,30595.962890625,30656.849609375,30818.408203125,30935.798828125,-0.17333984375,0.9619140625,0.167724609375,-1.4038084745407104,-1.2512205839157104,3.295898199081421,60.0,384.0,1.0,Rest
30530.337890625,30458.365234375,30896.19140625,30804.728515625,30748.759765625,30809.466796875,30970.7578125,31088.416015625,-0.173828125,0.965087890625,0.16845703125,-1.8005369901657104,-1.8310545682907104,3.479003667831421,60.0,385.0,1.0,Rest
30758.505859375,30686.353515625,31124.447265625,31033.07421875,30977.1953125,31037.634765625,31199.103515625,31316.8515625,-0.17041015625,0.962646484375,0.177978515625,-2.014159917831421,-2.044677495956421,3.570556402206421,60.0,386.0,1.0,Rest
30935.3515625,30862.931640625,31301.115234375,31209.921875,31154.66796875,31214.48046875,31375.501953125,31493.7890625,-0.1708984375,0.9619140625,0.1767578125,-2.136230230331421,-2.166747808456421,3.906249761581421,60.0,387.0,1.0,Rest
31019.037109375,30946.6171875,31385.158203125,31293.6953125,31238.44140625,31298.255859375,31459.3671875,31577.830078125,-0.170654296875,0.95947265625,0.178466796875,-2.166747808456421,-2.014159917831421,4.241942882537842,60.0,388.0,1.0,Rest
31094.765625,31022.255859375,31460.88671875,31369.423828125,31314.080078125,31374.072265625,31535.18359375,31653.55859375,-0.17138671875,0.958984375,0.1708984375,-2.075195074081421,-2.136230230331421,4.516601085662842,60.0,389.0,1.0,Rest
31245.05859375,31172.458984375,31611.26953125,31519.447265625,31464.1953125,31524.6328125,31685.119140625,31803.671875,-0.171630859375,0.963623046875,0.173828125,-2.380370855331421,-2.136230230331421,4.882812023162842,60.0,390.0,1.0,Rest
31468.12890625,31395.44140625,31834.16015625,31742.4296875,31687.533203125,31747.8828125,31907.921875,32027.01171875,-0.17236328125,0.96337890625,0.171630859375,-2.593993902206421,-2.166747808456421,5.126952648162842,60.0,391.0,1.0,Rest
31625.306640625,31552.6171875,31991.517578125,31899.517578125,31844.888671875,31904.79296875,32064.830078125,32184.45703125,-0.170166015625,0.961181640625,0.175537109375,-2.777099370956421,-2.105712652206421,5.523681163787842,60.0,392.0,1.0,Rest
31680.55859375,31607.78125,32046.859375,31955.216796875,31900.232421875,31960.134765625,32120.173828125,32240.068359375,-0.170166015625,0.960205078125,0.17431640625,-2.746581792831421,-2.075195074081421,5.737304210662842,60.0,393.0,1.0,Rest
31738.49609375,31665.62890625,32104.52734375,32012.974609375,31957.900390625,32018.0703125,32178.376953125,32297.9140625,-0.17041015625,0.960693359375,0.174072265625,-2.838134527206421,-2.075195074081421,5.737304210662842,60.0,394.0,1.0,Rest
31907.921875,31835.412109375,32274.490234375,32182.9375,32127.68359375,32188.123046875,32348.51953125,32467.609375,-0.168701171875,0.960205078125,0.177001953125,-3.082275152206421,-2.227782964706421,5.767821788787842,60.0,395.0,1.0,Rest
32147.62109375,32075.0234375,32514.458984375,32422.81640625,32367.65234375,32427.822265625,32587.771484375,32707.3984375,-0.167236328125,0.959228515625,0.174560546875,-3.204345464706421,-2.349853277206421,5.737304210662842,60.0,396.0,1.0,Rest
32299.255859375,32227.015625,32666.091796875,32574.361328125,32519.46484375,32579.814453125,32739.31640625,32859.390625,-0.166015625,0.9599609375,0.17578125,-3.204345464706421,-2.441406011581421,5.645751476287842,60.0,397.0,1.0,Rest
32336.091796875,32263.4921875,32702.5703125,32611.107421875,32556.033203125,32616.203125,32775.97265625,32895.8671875,-0.16650390625,0.96142578125,0.180908203125,-3.234863042831421,-2.410888433456421,5.798339366912842,60.0,398.0,1.0,Rest
32363.71875,32290.94140625,32730.376953125,32638.5546875,32583.748046875,32643.919921875,32803.69140625,32923.67578125,-0.170166015625,0.961669921875,0.177978515625,-3.051757574081421,-2.288818120956421,5.981444835662842,60.0,399.0,1.0,Rest
32489.693359375,32416.826171875,32856.53125,32764.619140625,32709.9921875,32770.25,32929.75390625,33049.6484375,-0.1640625,0.96533203125,0.181640625,-3.051757574081421,-2.227782964706421,6.286620616912842,60.0,400.0,1.0,Rest
32711.779296875,32638.734375,33078.6171875,32986.4375,32931.80859375,32992.515625,33151.66015625,33272.00390625,-0.164794921875,0.964599609375,0.1748046875,-2.990722417831421,-2.105712652206421,6.500243663787842,60.0,401.0,1.0,Rest
32901.5,32828.6328125,33268.6953125,33176.60546875,33121.98046875,33182.953125,33342.0078125,33461.9921875,-0.16552734375,0.96337890625,0.17529296875,-3.295898199081421,-2.288818120956421,6.683349132537842,60.0,402.0,1.0,Rest
32966.9453125,32894.2578125,33334.41015625,33242.23046875,33187.3359375,33248.3125,33407.1875,33527.88671875,-0.163330078125,0.965087890625,0.173583984375,-3.601073980331421,-2.563476324081421,6.988524913787842,60.0,403.0,1.0,Rest
33021.21875,32948.08203125,33388.5,33296.0546875,33241.60546875,33302.04296875,33460.7421875,33581.7109375,-0.15966796875,0.963623046875,0.177734375,-3.845214605331421,-2.746581792831421,7.080077648162842,60.0,404.0,1.0,Rest
33131.8125,33058.76953125,33498.91796875,33406.73828125,33352.29296875,33412.8203125,33571.33984375,33692.484375,-0.1640625,0.960205078125,0.177001953125,-3.814697027206421,-2.532958745956421,7.171630382537842,60.0,405.0,1.0,Rest
33325.0234375,33251.9765625,33692.39453125,33599.6796875,33545.6796875,33606.20703125,33764.81640625,33886.05078125,-0.165771484375,0.960205078125,0.183837890625,-3.814697027206421,-2.441406011581421,7.629394054412842,60.0,406.0,1.0,Rest
33500.796875,33427.5703125,33868.6171875,33775.36328125,33721.6328125,33782.25,33940.76953125,34061.9140625,-0.165771484375,0.96435546875,0.181396484375,-3.753661870956421,-2.532958745956421,8.056639671325684,60.0,407.0,1.0,Rest
33579.1171875,33506.33984375,33947.02734375,33854.1328125,33800.12890625,33861.1953125,34019.4453125,34140.76953125,-0.162841796875,0.96435546875,0.181640625,-3.936767339706421,-2.441406011581421,8.392333030700684,60.0,408.0,1.0,Rest
33639.734375,33566.6015625,34007.375,33914.5703125,33860.48046875,33921.546875,34079.796875,34201.2109375,-0.1611328125,0.962890625,0.178466796875,-3.936767339706421,-2.502441167831421,8.605956077575684,60.0,409.0,1.0,Rest
33800.12890625,33727.265625,34167.94921875,34075.234375,34021.4140625,34082.2109375,34240.28125,34361.6953125,-0.1591796875,0.962158203125,0.18115234375,-4.089354991912842,-2.563476324081421,8.789061546325684,60.0,410.0,1.0,Rest
34028.1171875,33955.51953125,34396.4765625,34303.4921875,34249.84765625,34310.375,34468.5390625,34590.48828125,-0.15869140625,0.965087890625,0.181396484375,-4.180907726287842,-2.502441167831421,8.941649436950684,60.0,411.0,1.0,Rest
34205.234375,34132.546875,34573.94921875,34480.6953125,34427.41015625,34487.671875,34645.296875,34767.69140625,-0.15869140625,0.96533203125,0.180419921875,-4.211425304412842,-2.593993902206421,8.880614280700684,60.0,412.0,1.0,Rest
34291.421875,34218.82421875,34660.31640625,34566.97265625,34513.8671875,34574.3046875,34731.75,34854.05859375,-0.157958984375,0.9619140625,0.1826171875,-4.364013195037842,-2.716064214706421,8.941649436950684,60.0,413.0,1.0,Rest
34365.18359375,34292.31640625,34733.80859375,34640.37890625,34586.9140625,34647.796875,34805.33203125,34926.92578125,-0.156494140625,0.963623046875,0.18359375,-4.608153820037842,-2.807616949081421,9.033202171325684,60.0,414.0,1.0,Rest
34509.484375,34436.88671875,34878.46875,34784.76953125,34731.9296875,34792.81640625,34949.9921875,35071.85546875,-0.15478515625,0.963623046875,0.184814453125,-4.669188976287842,-2.960204839706421,8.941649436950684,60.0,415.0,1.0,Rest
34735.7734375,34663.17578125,35104.84765625,35011.1484375,34958.578125,35019.1953125,35176.4609375,35298.6796875,-0.154052734375,0.96142578125,0.18115234375,-4.760741710662842,-3.021239995956421,9.094237327575684,60.0,416.0,1.0,Rest
34917.71875,34844.58203125,35286.7890625,35193.08984375,35140.4296875,35200.9609375,35358.13671875,35480.8046875,-0.151123046875,0.962158203125,0.1806640625,-4.730224132537842,-2.868652105331421,9.063719749450684,60.0,417.0,1.0,Rest
34992.10546875,34919.1484375,35361.53515625,35267.4765625,35214.63671875,35275.43359375,35432.703125,35555.63671875,-0.151123046875,0.963134765625,0.179931640625,-4.730224132537842,-2.929687261581421,8.972167015075684,60.0,418.0,1.0,Rest
35053.34765625,34980.125,35422.77734375,35328.72265625,35275.8828125,35336.41015625,35493.5,35616.79296875,-0.152587890625,0.962890625,0.179443359375,-4.730224132537842,-3.082275152206421,8.972167015075684,60.0,419.0,1.0,Rest
35205.33984375,35132.29296875,35575.21875,35480.98046875,35428.3203125,35488.9375,35645.40234375,35768.515625,-0.1513671875,0.96240234375,0.182373046875,-4.821776866912842,-3.112792730331421,9.063719749450684,60.0,420.0,1.0,Rest
35437.26171875,35364.75390625,35807.5859375,35712.90234375,35660.51171875,35721.30859375,35877.58984375,36000.97265625,-0.150634765625,0.961181640625,0.185302734375,-4.760741710662842,-3.143310308456421,9.063719749450684,60.0,421.0,1.0,Rest
35614.109375,35541.421875,35984.25390625,35889.5703125,35837.44921875,35898.15625,36054.08203125,36178.0,-0.150634765625,0.961181640625,0.181884765625,-4.669188976287842,-3.082275152206421,9.155272483825684,60.0,422.0,1.0,Rest
35676.9609375,35604.2734375,36047.1953125,35952.60546875,35900.390625,35961.09765625,36117.3828125,36241.30078125,-0.149169921875,0.9638671875,0.184326171875,-4.699706554412842,-2.990722417831421,9.216307640075684,60.0,423.0,1.0,Rest
35747.953125,35675.26171875,36118.54296875,36023.68359375,35971.73828125,36032.17578125,36188.7265625,36312.5546875,-0.1494140625,0.9619140625,0.18408203125,-4.638671398162842,-2.838134527206421,9.307860374450684,60.0,424.0,1.0,Rest
35900.390625,35828.05859375,36270.89453125,36176.12109375,36124.53515625,36184.703125,36340.80859375,36465.44140625,-0.14892578125,0.96337890625,0.182861328125,-4.791259288787842,-2.990722417831421,9.399413108825684,60.0,425.0,1.0,Rest
36122.4765625,36050.32421875,36493.16015625,36398.56640625,36346.9765625,36407.05859375,36563.43359375,36687.6171875,-0.1494140625,0.9638671875,0.18212890625,-4.943847179412842,-3.204345464706421,9.521483421325684,60.0,426.0,1.0,Rest
36311.125,36238.34765625,36681.8984375,36586.9453125,36535.625,36595.70703125,36751.9921875,36876.4453125,-0.1474609375,0.96435546875,0.1875,-5.126952648162842,-3.356933355331421,9.613036155700684,60.0,427.0,1.0,Rest
36401.875,36329.09765625,36772.46484375,36677.515625,36626.28515625,36686.45703125,36842.47265625,36967.015625,-0.151611328125,0.9619140625,0.181396484375,-5.249022960662842,-3.417968511581421,9.735106468200684,60.0,428.0,1.0,Rest
36466.87109375,36394.0078125,36837.375,36742.3359375,36691.015625,36751.6328125,36907.29296875,37032.19140625,-0.150634765625,0.963134765625,0.18603515625,-5.462646007537842,-3.387450933456421,10.101317405700684,60.0,429.0,1.0,Rest
36606.16796875,36533.30078125,36976.76171875,36881.54296875,36830.58203125,36890.9296875,37046.5,37171.66796875,-0.1513671875,0.965576171875,0.18603515625,-5.401610851287842,-3.295898199081421,10.406493186950684,60.0,430.0,1.0,Rest
36812.25390625,36739.4765625,37182.84375,37087.8046875,37036.93359375,37097.1015625,37252.76171875,37377.83984375,-0.14892578125,0.96533203125,0.18994140625,-5.401610851287842,-3.295898199081421,10.803221702575684,60.0,431.0,1.0,Rest
36984.44921875,36911.40625,37355.21875,37260.00390625,37209.30859375,37269.5703125,37424.95703125,37550.0390625,-0.148193359375,0.962158203125,0.188720703125,-5.462646007537842,-3.387450933456421,11.016844749450684,60.0,432.0,1.0,Rest
37062.6796875,36989.3671875,37434.078125,37338.14453125,37287.359375,37347.80078125,37502.921875,37628.5390625,-0.14453125,0.962890625,0.193115234375,-5.645751476287842,-3.356933355331421,11.322020530700684,60.0,433.0,1.0,Rest
37112.66015625,37039.43359375,37484.14453125,37388.12109375,37337.51953125,37397.8671875,37553.078125,37678.60546875,-0.14501953125,0.96337890625,0.18701171875,-5.676269054412842,-3.326415777206421,11.657713890075684,60.0,434.0,1.0,Rest
37243.91015625,37170.86328125,37615.125,37519.37109375,37468.9453125,37529.1171875,37684.41796875,37809.9453125,-0.146728515625,0.96533203125,0.1865234375,-5.859374523162842,-3.631591558456421,12.023924827575684,60.0,435.0,1.0,Rest
37445.609375,37372.83203125,37817.27734375,37721.4296875,37671.2734375,37731.17578125,37886.296875,38011.82421875,-0.14697265625,0.966064453125,0.188720703125,-6.256103038787842,-3.784179449081421,12.359618186950684,60.0,436.0,1.0,Rest
37623.88671875,37551.109375,37995.91015625,37899.62109375,37849.73046875,37909.54296875,38064.75390625,38190.640625,-0.14453125,0.966796875,0.189453125,-6.439208507537842,-3.845214605331421,12.695311546325684,60.0,437.0,1.0,Rest
37711.6875,37638.91015625,38083.53125,37987.328125,37937.171875,37997.1640625,38152.1953125,38278.16796875,-0.143798828125,0.965576171875,0.18603515625,-6.683349132537842,-3.967284917831421,13.183592796325684,60.0,438.0,1.0,Rest
37759.609375,37686.47265625,38131.09375,38034.8046875,37984.46875,38044.7265625,38199.84765625,38325.734375,-0.144775390625,0.966064453125,0.190673828125,-6.927489757537842,-4.028319835662842,13.671874046325684,60.0,439.0,1.0,Rest
37870.02734375,37796.62109375,38241.51171875,38145.1328125,38095.421875,38155.234375,38310.265625,38436.328125,-0.145751953125,0.968505859375,0.1875,-7.293700695037842,-4.089354991912842,14.312743186950684,60.0,440.0,1.0,Rest
38059.30078125,37985.8984375,38431.0546875,38334.49609375,38285.0546875,38344.8671875,38499.44921875,38625.87109375,-0.144287109375,0.9677734375,0.18505859375,-7.659911632537842,-4.455565929412842,14.770506858825684,60.0,441.0,1.0,Rest
38201.1875,38128.14453125,38573.390625,38476.65234375,38427.2109375,38486.93359375,38641.78515625,38768.38671875,-0.143798828125,0.96630859375,0.18896484375,-7.965087413787842,-4.547118663787842,15.228270530700684,60.0,442.0,1.0,Rest
38241.2421875,38168.2890625,38613.53515625,38517.15234375,38467.4453125,38527.61328125,38682.2890625,38808.62109375,-0.142333984375,0.966064453125,0.190185546875,-8.148192405700684,-4.516601085662842,15.930174827575684,60.0,443.0,1.0,Rest
38297.125,38223.8984375,38669.234375,38572.9453125,38523.32421875,38583.2265625,38738.16796875,38864.3203125,-0.145263671875,0.967529296875,0.188720703125,-8.514403343200684,-4.669188976287842,16.662595748901367,60.0,444.0,1.0,Rest
38455.46484375,38382.23828125,38827.484375,38731.10546875,38681.75390625,38741.7421875,38896.41796875,39022.66015625,-0.144775390625,0.968017578125,0.19091796875,-9.002684593200684,-4.852294445037842,17.578123092651367,60.0,445.0,1.0,Rest
38697.84375,38624.890625,39070.31640625,38973.3984375,38924.3125,38984.484375,39138.7109375,39265.22265625,-0.14111328125,0.967041015625,0.193603515625,-9.460448265075684,-5.187987804412842,18.402097702026367,60.0,446.0,1.0,Rest
38899.01171875,38825.609375,39271.48046875,39174.3828125,39125.48046875,39185.828125,39339.4296875,39466.56640625,-0.135986328125,0.968994140625,0.1904296875,-9.704588890075684,-5.279540538787842,19.287107467651367,60.0,447.0,1.0,Rest
38987.16796875,38914.03125,39359.81640625,39262.71875,39213.8125,39273.71484375,39427.67578125,39554.90234375,-0.134033203125,0.966064453125,0.19287109375,-10.009764671325684,-5.340575695037842,20.050046920776367,60.0,448.0,1.0,Rest
39026.4140625,38953.28125,39399.15234375,39302.05859375,39253.2421875,39312.96484375,39467.01171875,39594.23828125,-0.13232421875,0.96533203125,0.193359375,-10.437010765075684,-5.493163585662842,20.812986373901367,60.0,449.0,1.0,Rest
39157.84375,39084.44140625,39530.40234375,39433.484375,39384.40234375,39444.39453125,39598.44140625,39725.84765625,-0.13134765625,0.96630859375,0.19140625,-10.711668968200684,-5.706786632537842,21.453855514526367,60.0,450.0,1.0,Rest
39288.6484375,39215.15234375,39661.20703125,39564.01953125,39515.47265625,39575.10546875,39729.24609375,39856.55859375,-0.134033203125,0.968994140625,0.196044921875,-11.169432640075684,-5.828856945037842,22.247312545776367,60.0,451.0,1.0,Rest
39187.88671875,39114.75,39560.62109375,39463.70703125,39415.06640625,39474.5234375,39628.83984375,39755.9765625,-0.13671875,0.97412109375,0.1904296875,-11.749266624450684,-6.225585460662842,23.162839889526367,60.0,452.0,1.0,Rest
38927.44140625,38854.30859375,39299.82421875,39203.26171875,39154.26953125,39214.26171875,39368.3984375,39494.99609375,-0.13427734375,0.974609375,0.189697265625,-12.420653343200684,-6.530761241912842,24.139402389526367,60.0,453.0,1.0,Rest
38689.796875,38616.93359375,39062.26953125,38965.70703125,38916.17578125,38976.34765625,39131.0234375,39257.53125,-0.13134765625,0.97021484375,0.19482421875,-12.878417015075684,-6.591796398162842,25.146482467651367,60.0,454.0,1.0,Rest
38615.5,38542.3671875,38987.5234375,38891.41015625,38841.7890625,38901.60546875,39056.1875,39183.32421875,-0.129150390625,0.9658203125,0.202392578125,-13.061522483825684,-6.530761241912842,26.092527389526367,60.0,455.0,1.0,Rest
38644.19921875,38571.15625,39016.58203125,38919.84375,38870.84765625,38930.66015625,39085.06640625,39211.84765625,-0.12841796875,0.966796875,0.200927734375,-13.427733421325684,-6.744384288787842,27.038572311401367,60.0,456.0,1.0,Rest
38619.2578125,38546.03125,38991.81640625,38895.5234375,38845.9921875,38905.71484375,39060.30078125,39186.90234375,-0.1259765625,0.96826171875,0.198486328125,-13.916014671325684,-7.080077648162842,27.801511764526367,60.0,457.0,1.0,Rest
38443.125,38369.98828125,38815.86328125,38719.21484375,38669.68359375,38729.31640625,38883.8125,39010.6796875,-0.120361328125,0.96533203125,0.20068359375,-14.434813499450684,-7.293700695037842,28.686521530151367,60.0,458.0,1.0,Rest
38278.16796875,38205.2109375,38650.7265625,38553.8125,38504.45703125,38564.18359375,38719.125,38845.63671875,-0.1201171875,0.965576171875,0.202880859375,-14.678954124450684,-7.629394054412842,29.663084030151367,60.0,459.0,1.0,Rest
38199.66796875,38126.17578125,38571.51171875,38474.953125,38425.421875,38485.4140625,38640.17578125,38766.421875,-0.119384765625,0.97314453125,0.197265625,-15.197752952575684,-7.934569835662842,30.670164108276367,60.0,460.0,1.0,Rest
38183.75390625,38110.44140625,38555.5078125,38459.12890625,38409.1484375,38469.5,38624.0859375,38750.5078125,-0.112060546875,0.974853515625,0.198974609375,-16.052244186401367,-8.453368186950684,31.585691452026367,60.0,461.0,1.0,Rest
38205.9296875,38132.61328125,38578.30859375,38481.48046875,38431.859375,38491.8515625,38646.703125,38772.859375,-0.10595703125,0.971435546875,0.206787109375,-16.387937545776367,-8.331297874450684,32.287593841552734,60.0,462.0,1.0,Rest
38159.703125,38086.30078125,38531.90625,38435.61328125,38385.81640625,38445.44921875,38600.66015625,38726.54296875,-0.10302734375,0.96826171875,0.20751953125,-16.448972702026367,-8.087157249450684,32.897945404052734,60.0,463.0,1.0,Rest
38051.5234375,37978.38671875,38423.72265625,38327.34375,38277.453125,38337.53515625,38492.296875,38618.36328125,-0.09912109375,0.965576171875,0.21044921875,-16.632078170776367,-8.178709983825684,33.355709075927734,60.0,464.0,1.0,Rest
38050.08984375,37977.046875,38422.11328125,38325.734375,38275.84375,38336.015625,38490.6875,38616.93359375,-0.09521484375,0.96435546875,0.21240234375,-16.784666061401367,-8.087157249450684,33.630367279052734,60.0,465.0,1.0,Rest
38181.51953125,38108.65234375,38553.54296875,38457.33984375,38407.2734375,38467.4453125,38621.9375,38748.71875,-0.08154296875,0.958984375,0.213623046875,-16.571043014526367,-8.087157249450684,33.416744232177734,60.0,466.0,1.0,Rest
38290.23828125,38217.10546875,38662.44140625,38565.87890625,38515.9921875,38575.8046875,38730.390625,38857.703125,-0.080322265625,0.956787109375,0.21875,-16.510007858276367,-7.904052257537842,33.020015716552734,60.0,467.0,1.0,Rest
38283.53515625,38210.578125,38655.9140625,38559.35546875,38509.82421875,38569.8125,38724.21875,38851.26953125,-0.078369140625,0.95849609375,0.219482421875,-16.235349655151367,-7.995604991912842,32.287593841552734,60.0,468.0,1.0,Rest
38239.90234375,38166.9453125,38612.10546875,38515.72265625,38466.1015625,38525.9140625,38680.58984375,38807.19140625,-0.07275390625,0.962158203125,0.220947265625,-16.113279342651367,-8.239745140075684,31.463621139526367,60.0,469.0,1.0,Rest
38304.6328125,38231.5859375,38676.65625,38580.09765625,38530.38671875,38590.37890625,38745.05078125,38871.83203125,-0.06640625,0.96142578125,0.22412109375,-15.808104515075684,-8.239745140075684,30.426023483276367,60.0,470.0,1.0,Rest
38463.2421875,38389.83984375,38835.17578125,38738.52734375,38688.81640625,38748.8984375,38903.48046875,39030.3515625,-0.063232421875,0.95751953125,0.228759765625,-15.350340843200684,-7.843017101287842,29.266355514526367,60.0,471.0,1.0,Rest
38578.30859375,38504.99609375,38950.6875,38853.76953125,38804.59765625,38864.41015625,39019.0859375,39145.953125,-0.059326171875,0.955810546875,0.2333984375,-14.709471702575684,-7.415771007537842,28.167722702026367,60.0,472.0,1.0,Rest
38607.1875,38534.05078125,38979.38671875,38882.91796875,38833.296875,38893.6484375,39047.78515625,39175.27734375,-0.056640625,0.95703125,0.23046875,-13.977049827575684,-7.080077648162842,26.885984420776367,60.0,473.0,1.0,Rest
