EEG 1,EEG 2,EEG 3,EEG 4,EEG 5,EEG 6,EEG 7,EEG 8,Accelerometer X,Accelerometer Y,Accelerometer Z,Gyroscope X,Gyroscope Y,Gyroscope Z,Battery Level,Counter,Validation Indicator,State
750000.0625,735188.625,750000.0625,681197.625,248206.921875,750000.0625,746688.25,750000.0625,-0.05419921875,0.93017578125,0.3173828125,0.0,0.0,0.0,20.0,1.0,1.0,Rest
681626.3125,112633.125,750000.0625,750000.0625,-288421.65625,750000.0625,314057.59375,248202.28125,-0.06201171875,0.943359375,0.312255859375,0.0,0.0,0.0,20.0,2.0,1.0,Rest
586618.3125,-97990.234375,750000.0625,750000.0625,-299205.375,750000.0625,219680.640625,205215.3125,-0.06396484375,0.9482421875,0.310791015625,0.0,0.0,0.0,20.0,3.0,1.0,Rest
584041.25,142139.578125,610334.375,730865.875,-247660.203125,750000.0625,285709.9375,375495.46875,-0.063232421875,0.950927734375,0.313720703125,0.0,0.0,0.0,20.0,4.0,1.0,Rest
565067.5,432522.71875,750000.0625,709997.75,-226206.109375,699199.625,208804.734375,289308.9375,-0.066650390625,0.949951171875,0.313720703125,0.0,0.0,0.0,20.0,5.0,1.0,Rest
460121.78125,667982.625,750000.0625,726498.625,-171311.375,550391.625,197103.765625,304366.65625,-0.06689453125,0.9482421875,0.311279296875,0.0,0.0,0.0,20.0,6.0,1.0,Rest
442792.0,702903.375,750000.0625,750000.0625,-54875.14453125,713470.75,317396.84375,231248.75,-0.068603515625,0.94775390625,0.307373046875,-4.241942882537842,-3.814697027206421,-6.408690929412842,20.0,7.0,1.0,Rest
750000.0625,750000.0625,750000.0625,750000.0625,227566.96875,750000.0625,420475.5,621841.75,-0.070068359375,0.944091796875,0.306640625,-0.0915527269244194,-0.7629393935203552,-1.8920897245407104,20.0,8.0,1.0,Rest
750000.0625,750000.0625,750000.0625,750000.0625,399661.5625,750000.0625,750000.0625,750000.0625,-0.06591796875,0.941650390625,0.306396484375,1.0070799589157104,-0.0610351525247097,-0.7324218153953552,20.0,9.0,1.0,Rest
750000.0625,750000.0625,750000.0625,750000.0625,576380.0,750000.0625,750000.0625,750000.0625,-0.0673828125,0.938720703125,0.303955078125,1.4953612089157104,0.3051757514476776,-0.2441406100988388,20.0,10.0,1.0,Rest
750000.0625,750000.0625,750000.0625,750000.0625,705332.75,750000.0625,750000.0625,750000.0625,-0.06689453125,0.94140625,0.30615234375,1.7089842557907104,0.4577636420726776,-0.1220703050494194,20.0,11.0,1.0,Rest
750000.0625,750000.0625,750000.0625,750000.0625,695201.6875,750000.0625,750000.0625,750000.0625,-0.06689453125,0.94091796875,0.30859375,1.7700194120407104,0.4577636420726776,-0.03051757626235485,20.0,12.0,1.0,Rest
750000.0625,750000.0625,750000.0625,750000.0625,715771.8125,750000.0625,750000.0625,750000.0625,-0.066162109375,0.939697265625,0.3076171875,1.8920897245407104,0.3967284858226776,0.0,20.0,13.0,1.0,Rest
750000.0625,750000.0625,750000.0625,750000.0625,750000.0625,750000.0625,750000.0625,750000.0625,-0.0673828125,0.94189453125,0.3046875,1.9836424589157104,0.5187987685203552,0.1220703050494194,20.0,14.0,1.0,Rest
750000.0625,750000.0625,750000.0625,750000.0625,750000.0625,750000.0625,750000.0625,750000.0625,-0.06884765625,0.94384765625,0.303466796875,1.9836424589157104,0.5187987685203552,0.0610351525247097,20.0,15.0,1.0,Rest
745411.875,750000.0625,750000.0625,750000.0625,750000.0625,750000.0625,750000.0625,750000.0625,-0.069091796875,0.944091796875,0.30322265625,1.9531248807907104,0.4882812201976776,0.0915527269244194,20.0,16.0,1.0,Rest
639779.8125,749992.1875,750000.0625,750000.0625,750000.0625,750000.0625,743925.25,737202.125,-0.0693359375,0.947021484375,0.307861328125,1.8920897245407104,0.5187987685203552,0.1220703050494194,20.0,17.0,1.0,Rest
555240.1875,650544.25,750000.0625,750000.0625,651194.9375,685488.0625,644438.3125,639491.75,-0.0693359375,0.946044921875,0.3095703125,1.8310545682907104,0.6103515028953552,0.0610351525247097,20.0,18.0,1.0,Rest
511197.46875,598603.5,750000.0625,750000.0625,598993.0,630865.5625,592161.3125,588239.9375,-0.0693359375,0.947998046875,0.30810546875,1.7700194120407104,0.4882812201976776,0.1831054538488388,20.0,19.0,1.0,Rest
493710.53125,577826.625,750000.0625,750000.0625,578552.9375,608969.4375,571033.4375,567518.5,-0.069580078125,0.949462890625,0.30517578125,1.7395018339157104,0.5187987685203552,0.1220703050494194,20.0,20.0,1.0,Rest
478768.21875,560172.625,750000.0625,750000.0625,560845.625,590349.1875,553222.9375,550099.375,-0.06982421875,0.949951171875,0.3046875,1.6174315214157104,0.4577636420726776,0.03051757626235485,20.0,21.0,1.0,Rest
464505.03125,543451.0625,750000.0625,750000.0625,543387.625,572835.375,536376.25,533819.0625,-0.06982421875,0.9482421875,0.305908203125,1.5563963651657104,0.3662109076976776,0.1220703050494194,20.0,22.0,1.0,Rest
451479.34375,528207.875,750000.0625,750000.0625,527345.6875,556878.375,520915.3125,518861.875,-0.071533203125,0.948486328125,0.308349609375,1.5563963651657104,0.4882812201976776,0.1220703050494194,20.0,23.0,1.0,Rest
440011.1875,514737.28125,750000.0625,750000.0625,513753.875,542687.5,507205.8125,505420.1875,-0.0751953125,0.94921875,0.306396484375,1.3732908964157104,0.3967284858226776,-0.0610351525247097,20.0,24.0,1.0,Rest
429663.75,502561.5625,750000.0625,750000.0625,501954.59375,529782.0625,494867.65625,493167.21875,-0.07177734375,0.94873046875,0.306396484375,1.2817381620407104,0.2441406100988388,-0.0915527269244194,20.0,25.0,1.0,Rest
419737.25,490905.125,750000.0625,750000.0625,490343.84375,517485.75,483180.28125,481664.5625,-0.072998046875,0.9482421875,0.304443359375,1.3122557401657104,0.1831054538488388,0.0915527269244194,20.0,26.0,1.0,Rest
410056.0,479635.28125,750000.0625,750000.0625,478466.90625,505663.625,471853.21875,470680.90625,-0.0751953125,0.94677734375,0.304443359375,1.3122557401657104,0.1525878757238388,0.0,20.0,27.0,1.0,Rest
401105.03125,469242.0,750000.0625,750000.0625,467402.53125,494762.5,461341.0,460457.21875,-0.07421875,0.945556640625,0.3046875,1.3427733182907104,-0.03051757626235485,0.0,20.0,28.0,1.0,Rest
393272.875,460036.28125,750000.0625,750000.0625,458183.15625,485085.28125,452064.5,451265.1875,-0.07373046875,0.947998046875,0.307373046875,1.3122557401657104,-0.1525878757238388,0.0,20.0,29.0,1.0,Rest
386198.28125,451696.5,750000.0625,750000.0625,450250.53125,476218.96875,443688.75,442850.65625,-0.073486328125,0.947998046875,0.307861328125,1.0375975370407104,-0.1525878757238388,0.0,20.0,30.0,1.0,Rest
379248.40625,443576.375,750000.0625,750000.0625,442226.6875,467619.78125,435606.46875,434813.875,-0.07177734375,0.946044921875,0.30712890625,1.0070799589157104,-0.1220703050494194,0.03051757626235485,20.0,31.0,1.0,Rest
372332.53125,435550.5,750000.0625,750000.0625,433715.40625,459245.75,427631.0,427029.21875,-0.072021484375,0.944580078125,0.306884765625,0.9765624403953552,-0.2441406100988388,0.1831054538488388,20.0,32.0,1.0,Rest
365895.46875,428080.0,750000.0625,750000.0625,425707.15625,451453.65625,420145.84375,419738.78125,-0.072265625,0.947021484375,0.30712890625,1.0070799589157104,-0.2136230319738388,0.2746581733226776,20.0,33.0,1.0,Rest
360301.46875,421518.875,750000.0625,750000.0625,419152.90625,444513.90625,413540.90625,413145.09375,-0.0732421875,0.946533203125,0.3076171875,0.9155272841453552,-0.3967284858226776,0.2441406100988388,20.0,34.0,1.0,Rest
355254.96875,415558.125,750000.0625,750000.0625,413618.6875,438137.5,407596.875,407111.21875,-0.071533203125,0.947021484375,0.307373046875,0.8544921278953552,-0.4882812201976776,0.4272460639476776,20.0,35.0,1.0,Rest
350203.5625,409645.09375,750000.0625,750000.0625,407832.0,431862.09375,401751.0,401251.5625,-0.0703125,0.945556640625,0.30712890625,0.9155272841453552,-0.6713866591453552,0.3662109076976776,20.0,36.0,1.0,Rest
345073.21875,403699.875,750000.0625,750000.0625,401470.96875,425666.28125,395888.46875,395533.625,-0.0703125,0.943603515625,0.307373046875,0.9460448622703552,-0.5798339247703552,0.2746581733226776,20.0,37.0,1.0,Rest
340306.9375,398165.3125,750000.0625,750000.0625,395475.78125,419915.625,390375.46875,390174.40625,-0.068359375,0.94140625,0.306640625,0.9765624403953552,-0.6408690810203552,0.3356933295726776,20.0,38.0,1.0,Rest
336197.625,393332.53125,750000.0625,750000.0625,390700.28125,414805.03125,385522.09375,385335.6875,-0.069091796875,0.940673828125,0.30322265625,1.1901854276657104,-0.6103515028953552,0.5493163466453552,20.0,39.0,1.0,Rest
332509.125,388964.28125,750000.0625,750000.0625,386749.5625,410108.5625,381142.59375,380883.21875,-0.06884765625,0.943603515625,0.302734375,1.4648436307907104,-0.6713866591453552,0.6103515028953552,20.0,40.0,1.0,Rest
328754.46875,384560.71875,750000.0625,750000.0625,382488.78125,405431.875,376790.625,376516.6875,-0.066650390625,0.9443359375,0.3046875,1.4953612089157104,-0.7324218153953552,0.5493163466453552,20.0,41.0,1.0,Rest
324843.71875,380040.65625,750000.0625,750000.0625,377593.3125,400733.8125,372340.125,372192.15625,-0.06591796875,0.944091796875,0.307373046875,1.2512205839157104,-0.7934569716453552,0.5187987685203552,20.0,42.0,1.0,Rest
321200.84375,375797.03125,750000.0625,750000.0625,372953.53125,396348.84375,368115.1875,368115.46875,-0.06591796875,0.945068359375,0.303466796875,1.3732908964157104,-0.7019042372703552,0.7019042372703552,20.0,43.0,1.0,Rest
318128.8125,372178.5625,750000.0625,750000.0625,369400.15625,392531.34375,364462.90625,364476.78125,-0.068359375,0.94873046875,0.30615234375,1.4038084745407104,-0.6408690810203552,0.5798339247703552,20.0,44.0,1.0,Rest
315391.25,368930.40625,750000.0625,750000.0625,366551.5625,389021.65625,361197.78125,361135.90625,-0.06787109375,0.949951171875,0.3056640625,1.2207030057907104,-0.6408690810203552,0.5493163466453552,20.0,45.0,1.0,Rest
312535.59375,365579.0625,750000.0625,750000.0625,363353.8125,385466.65625,357911.875,357840.8125,-0.067626953125,0.949462890625,0.30712890625,1.1596678495407104,-0.7629393935203552,0.7019042372703552,20.0,46.0,1.0,Rest
309481.90625,362062.78125,750000.0625,750000.0625,359483.84375,381813.9375,354453.625,354499.40625,-0.066650390625,0.94677734375,0.306884765625,1.0986326932907104,-0.7629393935203552,0.7019042372703552,20.0,47.0,1.0,Rest
306638.59375,358763.5,750000.0625,749787.25,355803.03125,378415.21875,351171.40625,351341.53125,-0.06689453125,0.9453125,0.303466796875,1.4038084745407104,-0.7019042372703552,0.7629393935203552,20.0,48.0,1.0,Rest
304292.0,355970.6875,750000.0625,743051.6875,353097.78125,375474.71875,348354.09375,348537.75,-0.0654296875,0.946533203125,0.303466796875,1.4953612089157104,-0.6408690810203552,0.6408690810203552,20.0,49.0,1.0,Rest
302238.25,353534.53125,750000.0625,736870.6875,351036.3125,372810.40625,345889.3125,346000.46875,-0.06396484375,0.950439453125,0.301513671875,1.2512205839157104,-0.7629393935203552,0.6713866591453552,20.0,50.0,1.0,Rest
300066.09375,350973.625,750000.0625,730811.0625,348632.34375,370092.96875,343397.09375,343486.25,-0.062744140625,0.947265625,0.3037109375,1.2207030057907104,-0.6713866591453552,0.8544921278953552,20.0,51.0,1.0,Rest
297625.75,348149.09375,750000.0625,724566.9375,345504.78125,367188.5,340640.78125,340834.625,-0.062744140625,0.9482421875,0.301513671875,1.4343260526657104,-0.5493163466453552,0.7629393935203552,20.0,52.0,1.0,Rest
295346.5,345516.84375,750000.0625,718562.8125,342502.5,364467.5625,337986.90625,338316.28125,-0.06298828125,0.9501953125,0.3037109375,1.4038084745407104,-0.3662109076976776,0.6103515028953552,20.0,53.0,1.0,Rest
293556.125,343400.78125,750000.0625,713297.0625,340456.78125,362218.09375,335826.84375,336166.3125,-0.06298828125,0.950439453125,0.30322265625,1.1291502714157104,-0.3967284858226776,0.5798339247703552,20.0,54.0,1.0,Rest
292024.84375,341568.03125,750000.0625,708520.1875,339006.96875,360223.6875,333998.03125,334232.09375,-0.06494140625,0.9482421875,0.3037109375,1.1291502714157104,-0.3967284858226776,0.4882812201976776,20.0,55.0,1.0,Rest
290319.59375,339567.1875,750000.0625,703729.3125,337162.03125,358105.09375,332066.75,332260.3125,-0.06640625,0.9462890625,0.301025390625,1.0375975370407104,-0.3051757514476776,0.5187987685203552,20.0,56.0,1.0,Rest
288360.59375,337311.875,750000.0625,698740.6875,334607.96875,355776.21875,329864.75,330174.4375,-0.0673828125,0.947509765625,0.30029296875,0.9765624403953552,-0.3051757514476776,0.4882812201976776,20.0,57.0,1.0,Rest
286536.6875,335202.34375,750000.0625,693962.9375,332141.9375,353592.375,327726.75,328170.375,-0.069091796875,0.9453125,0.302734375,0.7629393935203552,-0.4577636420726776,0.4272460639476776,20.0,58.0,1.0,Rest
285154.1875,333559.375,750000.0625,689780.5,330568.71875,351836.21875,326043.03125,326482.125,-0.06787109375,0.94287109375,0.2978515625,0.6713866591453552,-0.6408690810203552,0.1220703050494194,20.0,59.0,1.0,Rest
283997.78125,332157.40625,750000.0625,685991.6875,329550.90625,350295.84375,324633.1875,324978.03125,-0.065673828125,0.94091796875,0.29736328125,0.7934569716453552,-0.5187987685203552,0.2136230319738388,20.0,60.0,1.0,Rest
282647.65625,330574.0,750000.0625,682159.4375,328112.0,348594.34375,323093.9375,323402.3125,-0.06591796875,0.938720703125,0.295654296875,1.0070799589157104,-0.3662109076976776,0.0,20.0,61.0,1.0,Rest
281055.5,328736.875,750000.0625,678133.25,325990.65625,346713.75,321322.25,321725.5625,-0.06982421875,0.939208984375,0.297119140625,1.0681151151657104,-0.3662109076976776,-0.1220703050494194,20.0,62.0,1.0,Rest
279581.34375,327039.46875,750000.0625,674253.625,323961.375,344990.53125,319625.84375,320142.1875,-0.06884765625,0.9365234375,0.298583984375,1.0681151151657104,-0.4272460639476776,-0.2746581733226776,20.0,63.0,1.0,Rest
278505.25,325764.71875,750000.0625,670894.25,322753.84375,343621.34375,318300.5625,318808.5,-0.0693359375,0.933837890625,0.2978515625,1.1901854276657104,-0.4577636420726776,-0.3967284858226776,20.0,64.0,1.0,Rest
277657.6875,324737.25,750000.0625,667957.25,322094.09375,342459.21875,317263.0,317681.875,-0.06884765625,0.9375,0.2998046875,1.1291502714157104,-0.4882812201976776,-0.5187987685203552,20.0,65.0,1.0,Rest
276595.6875,323471.96875,750000.0625,664856.9375,320993.0625,341127.25,316074.96875,316454.40625,-0.068359375,0.939453125,0.30224609375,1.2207030057907104,-0.5493163466453552,-0.5493163466453552,20.0,66.0,1.0,Rest
275271.40625,321941.9375,750000.0625,661520.5625,319183.28125,339584.71875,314597.25,315066.0,-0.066650390625,0.927490234375,0.290283203125,1.4648436307907104,-0.5493163466453552,-0.4882812201976776,20.0,67.0,1.0,Rest
274050.0,320546.21875,750000.0625,658322.375,317456.125,338166.34375,313182.65625,313771.375,-0.0712890625,0.939208984375,0.29541015625,2.319335699081421,-0.2136230319738388,-0.6103515028953552,20.0,68.0,1.0,Rest
273208.4375,319538.84375,750000.0625,655604.0625,316527.90625,337098.125,312139.25,312720.21875,-0.070068359375,0.950927734375,0.30419921875,2.044677495956421,-0.4272460639476776,-1.0681151151657104,20.0,69.0,1.0,Rest
272581.25,318761.90625,750000.0625,653244.6875,316111.875,336213.96875,311356.15625,311838.0625,-0.06689453125,0.957275390625,0.304931640625,1.6479490995407104,-0.6408690810203552,-0.9460448622703552,20.0,70.0,1.0,Rest
271742.34375,317768.875,750000.0625,650750.875,315261.90625,335143.0625,310414.4375,310861.5625,-0.06982421875,0.961669921875,0.305908203125,1.4953612089157104,-0.4577636420726776,-1.0070799589157104,20.0,71.0,1.0,Rest
270629.65625,316505.1875,750000.0625,647984.25,313711.125,333853.71875,309189.375,309728.75,-0.0712890625,0.968017578125,0.306884765625,1.2207030057907104,-0.3662109076976776,-1.0681151151657104,20.0,72.0,1.0,Rest
269611.9375,315342.1875,750000.0625,645319.8125,312226.71875,332692.3125,308024.5,308667.59375,-0.067626953125,0.969970703125,0.306640625,0.5493163466453552,-0.4882812201976776,-1.2207030057907104,20.0,73.0,1.0,Rest
268985.5625,314583.28125,750000.0625,643138.5625,311542.46875,331883.28125,307234.40625,307869.28125,-0.06787109375,0.9677734375,0.3046875,0.1220703050494194,-0.3967284858226776,-0.9765624403953552,20.0,74.0,1.0,Rest
268535.84375,314020.375,750000.0625,641257.1875,311334.4375,331228.09375,306661.5625,307199.875,-0.068359375,0.965087890625,0.299560546875,-0.1220703050494194,-0.3662109076976776,-0.9155272841453552,20.0,75.0,1.0,Rest
267864.21875,313230.375,750000.0625,639224.5,310687.28125,330367.1875,305901.53125,306411.9375,-0.067626953125,0.9609375,0.2998046875,-0.2746581733226776,-0.3967284858226776,-0.8239745497703552,20.0,76.0,1.0,Rest
266917.125,312160.28125,750000.0625,636899.9375,309342.0,329279.21875,304860.46875,305464.6875,-0.06787109375,0.96044921875,0.304443359375,-0.3662109076976776,-0.4272460639476776,-0.7629393935203552,20.0,77.0,1.0,Rest
266064.71875,311194.3125,750000.0625,634660.375,308053.09375,328311.5625,303880.125,304579.5625,-0.06884765625,0.95703125,0.302978515625,-0.4577636420726776,-0.4577636420726776,-0.5493163466453552,20.0,78.0,1.0,Rest
265585.5,310615.40625,750000.0625,632874.5,307544.8125,327691.4375,303266.875,303948.5,-0.070556640625,0.9541015625,0.30712890625,-0.6408690810203552,-0.4577636420726776,-0.4882812201976776,20.0,79.0,1.0,Rest
265276.40625,310204.78125,750000.0625,631378.8125,307499.3125,327203.8125,302865.53125,303452.5625,-0.070556640625,0.950927734375,0.307373046875,-0.7324218153953552,-0.3356933295726776,-0.4272460639476776,20.0,80.0,1.0,Rest
264738.625,309568.375,750000.0625,629708.8125,307009.625,326514.46875,302270.4375,302817.15625,-0.0732421875,0.948486328125,0.30419921875,-0.7629393935203552,-0.3356933295726776,-0.3051757514476776,20.0,81.0,1.0,Rest
263920.46875,308650.96875,750000.0625,627726.125,305816.65625,325591.625,301384.40625,302023.9375,-0.073486328125,0.947509765625,0.30322265625,-0.8850097060203552,-0.3356933295726776,-0.3051757514476776,20.0,82.0,1.0,Rest
263190.71875,307837.0,749485.125,625825.5625,304675.65625,324780.78125,300554.28125,301290.96875,-0.073974609375,0.94677734375,0.30322265625,-0.9155272841453552,-0.4272460639476776,-0.2746581733226776,20.0,83.0,1.0,Rest
262801.09375,307368.40625,748075.4375,624345.0625,304278.4375,324278.125,300045.1875,300758.21875,-0.073974609375,0.942626953125,0.3037109375,-1.0375975370407104,-0.5187987685203552,-0.3051757514476776,20.0,84.0,1.0,Rest
262605.90625,307082.59375,746733.3125,623130.75,304359.96875,323930.25,299767.5625,300381.875,-0.076416015625,0.9443359375,0.304931640625,-1.0986326932907104,-0.6408690810203552,-0.2136230319738388,20.0,85.0,1.0,Rest
262191.25,306569.21875,745435.625,621751.6875,304007.0625,323384.96875,299324.65625,299905.875,-0.07763671875,0.9443359375,0.30322265625,-1.1596678495407104,-0.7934569716453552,-0.0915527269244194,20.0,86.0,1.0,Rest
261479.578125,305779.3125,744176.0,620052.5,302940.1875,322604.1875,298575.78125,299231.03125,-0.077392578125,0.943115234375,0.305908203125,-1.1596678495407104,-0.8850097060203552,-0.0915527269244194,20.0,87.0,1.0,Rest
260843.890625,305069.6875,742971.9375,618408.8125,301906.90625,321892.5,297830.84375,298591.25,-0.07568359375,0.9443359375,0.30712890625,-0.9765624403953552,-0.8850097060203552,-0.1220703050494194,20.0,88.0,1.0,Rest
260566.640625,304722.5,741833.875,617186.9375,301631.25,321505.1875,297429.9375,298185.25,-0.07421875,0.94482421875,0.310791015625,-0.9765624403953552,-1.0986326932907104,0.0610351525247097,20.0,89.0,1.0,Rest
260450.9375,304550.84375,740749.4375,616228.625,301811.96875,321268.4375,297241.75,297905.21875,-0.070556640625,0.944580078125,0.3115234375,-0.9460448622703552,-1.2207030057907104,0.1525878757238388,20.0,90.0,1.0,Rest
260127.015625,304162.65625,739697.875,615092.5625,301559.5625,320840.1875,296886.96875,297518.90625,-0.0712890625,0.9453125,0.308837890625,-0.8850097060203552,-1.3122557401657104,0.1220703050494194,20.0,91.0,1.0,Rest
259520.3125,303485.125,738677.25,613629.0625,300614.71875,320174.0,296252.8125,296969.84375,-0.0712890625,0.945556640625,0.30615234375,-0.9460448622703552,-1.4343260526657104,0.2746581733226776,20.0,92.0,1.0,Rest
258973.9375,302875.90625,737700.9375,612209.9375,299696.59375,319577.75,295631.15625,296446.65625,-0.072265625,0.941650390625,0.306396484375,-0.7324218153953552,-1.3732908964157104,0.3967284858226776,20.0,93.0,1.0,Rest
258765.703125,302618.125,736778.25,611189.625,299505.4375,319287.0,295314.65625,296116.90625,-0.070556640625,0.94091796875,0.3076171875,-0.6408690810203552,-1.4953612089157104,0.3356933295726776,20.0,94.0,1.0,Rest
258729.6875,302536.78125,735897.1875,610431.4375,299773.03125,319141.71875,295218.71875,295926.90625,-0.06982421875,0.941650390625,0.307373046875,-0.6103515028953552,-1.5563963651657104,0.3356933295726776,20.0,95.0,1.0,Rest
258473.0,302218.3125,735042.8125,609479.25,299604.75,318794.8125,294956.40625,295618.90625,-0.068115234375,0.94287109375,0.305419921875,-0.4882812201976776,-1.5563963651657104,0.4272460639476776,20.0,96.0,1.0,Rest
257931.90625,301610.78125,734210.375,608202.0,298734.84375,318201.875,294390.1875,295125.65625,-0.068603515625,0.94287109375,0.30517578125,-0.4272460639476776,-1.4953612089157104,0.5187987685203552,20.0,97.0,1.0,Rest
257450.796875,301079.4375,733414.25,606958.4375,297895.40625,317694.84375,293851.15625,294672.8125,-0.06689453125,0.943359375,0.3046875,-0.3662109076976776,-1.5258787870407104,0.6408690810203552,20.0,98.0,1.0,Rest
257313.828125,300899.03125,732666.375,606102.8125,297786.5,317493.9375,293638.09375,294441.34375,-0.068359375,0.942626953125,0.306884765625,-0.2746581733226776,-1.4953612089157104,0.5798339247703552,20.0,99.0,1.0,Rest
257338.328125,300887.03125,731955.0,605518.0,298122.9375,317425.71875,293625.59375,294331.1875,-0.065185546875,0.942626953125,0.3046875,-0.3356933295726776,-1.5563963651657104,0.5493163466453552,20.0,100.0,1.0,Rest
257121.34375,300636.25,731254.625,604713.125,298001.4375,317121.125,293395.625,294066.53125,-0.06298828125,0.940673828125,0.3037109375,-0.3662109076976776,-1.4953612089157104,0.6713866591453552,20.0,101.0,1.0,Rest
256621.46875,300093.28125,730569.8125,603554.0,297182.1875,316589.125,292864.09375,293613.6875,-0.062744140625,0.939697265625,0.304931640625,-0.3356933295726776,-1.4343260526657104,0.6713866591453552,20.0,102.0,1.0,Rest
256204.921875,299607.1875,729923.8125,602467.0625,296413.5625,316156.59375,292385.78125,293235.9375,-0.0634765625,0.943115234375,0.307373046875,-0.3356933295726776,-1.4038084745407104,0.6103515028953552,20.0,103.0,1.0,Rest
256114.25,299483.625,729316.6875,601762.0,296361.625,316011.84375,292220.1875,293047.65625,-0.063232421875,0.9423828125,0.3056640625,-0.3051757514476776,-1.3732908964157104,0.6408690810203552,20.0,104.0,1.0,Rest
256184.0,299523.3125,728740.6875,601288.4375,296749.28125,315997.71875,292274.1875,292978.09375,-0.063720703125,0.94287109375,0.3056640625,-0.2441406100988388,-1.3732908964157104,0.5493163466453552,20.0,105.0,1.0,Rest
256030.65625,299340.21875,728174.0625,600617.75,296702.6875,315782.875,292176.375,292800.53125,-0.0654296875,0.945556640625,0.304931640625,-0.2441406100988388,-1.2817381620407104,0.5493163466453552,20.0,106.0,1.0,Rest
255572.546875,298849.375,727614.0625,599607.5625,295939.34375,315302.125,291735.78125,292413.5,-0.067138671875,0.944091796875,0.30517578125,-0.2441406100988388,-1.1596678495407104,0.3662109076976776,20.0,107.0,1.0,Rest
255191.578125,298419.9375,727085.625,598619.0,295213.8125,314912.3125,291308.875,292075.53125,-0.067138671875,0.946533203125,0.30517578125,-0.3662109076976776,-1.0681151151657104,0.3051757514476776,20.0,108.0,1.0,Rest
255142.765625,298344.75,726592.5625,598005.6875,295207.0,314826.46875,291196.21875,291932.9375,-0.066650390625,0.947998046875,0.303955078125,-0.3662109076976776,-1.0986326932907104,0.1831054538488388,20.0,109.0,1.0,Rest
255240.21875,298421.1875,726120.75,597636.3125,295629.90625,314847.125,291266.75,291896.1875,-0.06591796875,0.94677734375,0.3017578125,-0.3356933295726776,-1.1596678495407104,0.1831054538488388,20.0,110.0,1.0,Rest
255112.0,298262.5,725655.0625,597067.0625,295611.21875,314648.90625,291139.1875,291741.59375,-0.06787109375,0.945556640625,0.3037109375,-0.3356933295726776,-1.1596678495407104,0.03051757626235485,20.0,111.0,1.0,Rest
254698.40625,297813.125,725196.8125,596135.875,294896.0625,314225.03125,290709.9375,291409.625,-0.06640625,0.947998046875,0.30322265625,-0.3356933295726776,-1.1596678495407104,-0.1831054538488388,20.0,112.0,1.0,Rest
254349.546875,297431.375,724761.1875,595246.9375,294207.53125,313878.3125,290307.25,291107.78125,-0.069580078125,0.947021484375,0.30322265625,-0.4272460639476776,-1.1291502714157104,-0.3967284858226776,20.0,113.0,1.0,Rest
254329.609375,297388.28125,724356.875,594740.3125,294234.25,313816.90625,290217.03125,291006.5,-0.070556640625,0.947998046875,0.303466796875,-0.4882812201976776,-1.0986326932907104,-0.4577636420726776,20.0,114.0,1.0,Rest
254452.09375,297491.375,723971.0625,594454.3125,294681.84375,313860.4375,290306.15625,290997.90625,-0.066650390625,0.94677734375,0.30224609375,-0.5798339247703552,-1.1291502714157104,-0.5798339247703552,20.0,115.0,1.0,Rest
254357.953125,297375.65625,723591.375,593960.375,294705.15625,313718.71875,290233.46875,290893.9375,-0.069091796875,0.94775390625,0.3017578125,-0.7324218153953552,-1.0986326932907104,-0.7019042372703552,20.0,116.0,1.0,Rest
253975.015625,296970.46875,723212.1875,593123.875,294025.84375,313336.875,289849.9375,290587.25,-0.067138671875,0.946533203125,0.302490234375,-0.7629393935203552,-1.0681151151657104,-0.7934569716453552,20.0,117.0,1.0,Rest
253664.234375,296634.03125,722856.5,592318.8125,293372.21875,313029.3125,289486.5625,290310.90625,-0.067138671875,0.947509765625,0.30224609375,-0.8239745497703552,-1.0681151151657104,-0.8544921278953552,20.0,118.0,1.0,Rest
253666.203125,296602.375,722525.625,591869.8125,293420.125,312997.125,289416.75,290229.28125,-0.06591796875,0.94580078125,0.303955078125,-0.8850097060203552,-1.1596678495407104,-0.8544921278953552,20.0,119.0,1.0,Rest
253821.140625,296732.03125,722211.375,591656.0,293901.03125,313085.90625,289538.625,290251.71875,-0.06396484375,0.9462890625,0.30419921875,-0.8239745497703552,-1.1901854276657104,-0.7629393935203552,20.0,120.0,1.0,Rest
253758.109375,296651.75,721900.0625,591246.75,293958.4375,312978.875,289499.1875,290171.96875,-0.064208984375,0.948486328125,0.301025390625,-0.9460448622703552,-1.1596678495407104,-0.8239745497703552,20.0,121.0,1.0,Rest
253407.375,296278.8125,721589.5625,590494.5625,293322.3125,312629.03125,289158.28125,289918.78125,-0.065673828125,0.946533203125,0.30419921875,-0.9460448622703552,-1.0986326932907104,-0.7324218153953552,20.0,122.0,1.0,Rest
253102.671875,295946.40625,721292.25,589735.0625,292686.53125,312328.09375,288805.375,289667.09375,-0.064697265625,0.9462890625,0.302978515625,-1.0070799589157104,-1.0375975370407104,-0.7019042372703552,20.0,123.0,1.0,Rest
253126.0,295954.0,721018.6875,589344.0,292757.25,312318.15625,288764.25,289589.46875,-0.066650390625,0.94677734375,0.302001953125,-1.0986326932907104,-1.0070799589157104,-0.7629393935203552,20.0,124.0,1.0,Rest
253313.21875,296129.6875,720763.0625,589206.125,293274.21875,312441.0,288935.46875,289652.15625,-0.06689453125,0.945556640625,0.302978515625,-1.0681151151657104,-1.0070799589157104,-0.6408690810203552,20.0,125.0,1.0,Rest
253269.953125,296068.53125,720506.375,588865.5,293352.96875,312358.65625,288937.78125,289597.4375,-0.067138671875,0.945556640625,0.30029296875,-1.0986326932907104,-0.9765624403953552,-0.5493163466453552,20.0,126.0,1.0,Rest
252930.5625,295713.0625,720245.3125,588136.5,292727.9375,312030.625,288646.25,289344.59375,-0.070068359375,0.94482421875,0.2978515625,-1.0375975370407104,-1.0070799589157104,-0.4577636420726776,20.0,127.0,1.0,Rest
252657.96875,295414.625,719997.0,587449.5625,292133.46875,311772.875,288367.5625,289120.375,-0.06591796875,0.94384765625,0.298828125,-1.0070799589157104,-0.9460448622703552,-0.3662109076976776,20.0,128.0,1.0,Rest
252705.796875,295447.96875,719773.0625,587141.375,292240.125,311789.5,288376.9375,289093.09375,-0.066162109375,0.943603515625,0.30029296875,-1.0986326932907104,-0.9155272841453552,-0.3662109076976776,20.0,129.0,1.0,Rest
252898.5625,295629.09375,719562.0625,587016.125,292762.8125,311923.71875,288567.125,289173.03125,-0.06982421875,0.9443359375,0.300537109375,-1.1901854276657104,-0.8544921278953552,-0.3662109076976776,20.0,130.0,1.0,Rest
252869.234375,295582.875,719350.25,586708.4375,292854.96875,311855.40625,288567.28125,289123.9375,-0.07080078125,0.94677734375,0.301513671875,-1.1596678495407104,-0.8850097060203552,-0.3967284858226776,20.0,131.0,1.0,Rest
252549.328125,295252.625,719128.8125,586059.25,292252.125,311538.8125,288261.6875,288883.625,-0.071044921875,0.946044921875,0.302978515625,-1.3427733182907104,-1.0070799589157104,-0.2441406100988388,20.0,132.0,1.0,Rest
252287.015625,294959.09375,718920.5,585402.3125,291666.75,311295.09375,287981.6875,288686.84375,-0.07373046875,0.9501953125,0.30078125,-1.5563963651657104,-1.0986326932907104,-0.2441406100988388,20.0,133.0,1.0,Rest
252343.703125,294995.46875,718735.1875,585095.5625,291770.84375,311317.78125,287979.625,288659.46875,-0.076171875,0.953125,0.302001953125,-1.6479490995407104,-1.1291502714157104,-0.2136230319738388,20.0,134.0,1.0,Rest
252550.9375,295196.28125,718561.0625,585031.125,292301.71875,311458.53125,288155.03125,288728.3125,-0.074951171875,0.953857421875,0.302490234375,-1.8615721464157104,-1.1291502714157104,-0.3662109076976776,20.0,135.0,1.0,Rest
252534.671875,295180.375,718382.75,584764.25,292412.6875,311411.84375,288177.125,288706.40625,-0.07373046875,0.9521484375,0.302001953125,-2.075195074081421,-1.1596678495407104,-0.4272460639476776,20.0,136.0,1.0,Rest
252238.46875,294851.1875,718200.125,584159.1875,291838.96875,311122.25,287906.03125,288515.34375,-0.0732421875,0.951171875,0.303466796875,-2.166747808456421,-1.2512205839157104,-0.3662109076976776,20.0,137.0,1.0,Rest
251986.78125,294564.4375,718023.875,583552.3125,291267.5625,310885.59375,287615.5625,288311.40625,-0.07421875,0.950927734375,0.301513671875,-2.349853277206421,-1.2512205839157104,-0.3662109076976776,20.0,138.0,1.0,Rest
252052.765625,294631.9375,717868.4375,583288.3125,291393.09375,310931.1875,287629.875,288294.0625,-0.072509765625,0.94970703125,0.302001953125,-2.502441167831421,-1.2817381620407104,-0.3967284858226776,20.0,139.0,1.0,Rest
252267.875,294843.5,717726.0625,583255.5,291938.90625,311084.34375,287826.46875,288378.09375,-0.070068359375,0.947265625,0.2998046875,-2.471923589706421,-1.2512205839157104,-0.3356933295726776,20.0,140.0,1.0,Rest
252259.828125,294826.40625,717580.4375,583026.25,292060.6875,311045.375,287852.5625,288365.84375,-0.06787109375,0.947021484375,0.304931640625,-2.624511480331421,-1.3732908964157104,-0.2136230319738388,20.0,141.0,1.0,Rest
251972.84375,294522.59375,717424.3125,582453.75,291498.84375,310780.375,287597.21875,288187.3125,-0.068359375,0.94873046875,0.30517578125,-2.624511480331421,-1.3122557401657104,-0.0915527269244194,20.0,142.0,1.0,Rest
251717.40625,294261.0,717271.6875,581832.0,290928.53125,310550.3125,287311.125,287973.90625,-0.0673828125,0.94921875,0.303955078125,-2.685546636581421,-1.2817381620407104,0.0,20.0,143.0,1.0,Rest
251797.515625,294322.40625,717144.6875,581616.9375,291073.09375,310609.34375,287338.3125,287980.5,-0.067138671875,0.9482421875,0.3037109375,-2.807616949081421,-1.1901854276657104,0.0915527269244194,20.0,144.0,1.0,Rest
252032.109375,294559.34375,717030.6875,581633.875,291648.15625,310792.4375,287560.9375,288103.09375,-0.068359375,0.947021484375,0.3017578125,-2.777099370956421,-1.0681151151657104,0.1831054538488388,20.0,145.0,1.0,Rest
252039.265625,294561.21875,716909.5,581442.3125,291788.8125,310767.6875,287603.5625,288107.21875,-0.068359375,0.9462890625,0.302734375,-2.807616949081421,-1.0681151151657104,0.2441406100988388,20.0,146.0,1.0,Rest
251756.296875,294239.4375,716776.25,580885.0,291225.4375,310494.0,287334.8125,287914.0,-0.06884765625,0.94580078125,0.303955078125,-2.746581792831421,-0.9765624403953552,0.4882812201976776,20.0,147.0,1.0,Rest
251512.390625,293986.15625,716646.5625,580299.3125,290665.75,310271.1875,287058.8125,287717.46875,-0.0673828125,0.944091796875,0.30517578125,-2.746581792831421,-0.9460448622703552,0.5493163466453552,20.0,148.0,1.0,Rest
251593.9375,294065.65625,716540.375,580090.5,290810.25,310332.0,287092.34375,287728.125,-0.068115234375,0.94287109375,0.308349609375,-2.655029058456421,-0.9155272841453552,0.5187987685203552,20.0,149.0,1.0,Rest
251829.515625,294305.96875,716444.625,580126.9375,291385.5,310508.9375,287304.96875,287848.5625,-0.067138671875,0.944091796875,0.3076171875,-2.563476324081421,-0.8239745497703552,0.5798339247703552,20.0,150.0,1.0,Rest
251831.578125,294307.03125,716342.125,579922.0,291516.03125,310483.8125,287334.28125,287831.5625,-0.068359375,0.945556640625,0.310791015625,-2.593993902206421,-0.7934569716453552,0.5493163466453552,20.0,151.0,1.0,Rest
251563.796875,293996.34375,716229.5625,579403.1875,290977.53125,310236.3125,287100.9375,287670.375,-0.068115234375,0.9462890625,0.30908203125,-2.532958745956421,-0.8239745497703552,0.4882812201976776,20.0,152.0,1.0,Rest
251563.796875,293996.34375,716229.5625,579403.1875,290977.53125,310236.3125,287100.9375,287670.375,-0.068115234375,0.9462890625,0.30908203125,-2.532958745956421,-0.8239745497703552,0.4882812201976776,20.0,153.0,0.0,Rest
251563.796875,293996.34375,716229.5625,579403.1875,290977.53125,310236.3125,287100.9375,287670.375,-0.068115234375,0.9462890625,0.30908203125,-2.532958745956421,-0.8239745497703552,0.4882812201976776,20.0,154.0,0.0,Rest
251563.796875,293996.34375,716229.5625,579403.1875,290977.53125,310236.3125,287100.9375,287670.375,-0.068115234375,0.9462890625,0.30908203125,-2.532958745956421,-0.8239745497703552,0.4882812201976776,20.0,155.0,0.0,Rest
251563.796875,293996.34375,716229.5625,579403.1875,290977.53125,310236.3125,287100.9375,287670.375,-0.068115234375,0.9462890625,0.30908203125,-2.532958745956421,-0.8239745497703552,0.4882812201976776,20.0,156.0,0.0,Rest
251563.796875,293996.34375,716229.5625,579403.1875,290977.53125,310236.3125,287100.9375,287670.375,-0.068115234375,0.9462890625,0.30908203125,-2.532958745956421,-0.8239745497703552,0.4882812201976776,20.0,157.0,0.0,Rest
251563.796875,293996.34375,716229.5625,579403.1875,290977.53125,310236.3125,287100.9375,287670.375,-0.068115234375,0.9462890625,0.30908203125,-2.532958745956421,-0.8239745497703552,0.4882812201976776,20.0,158.0,0.0,Rest
251563.796875,293996.34375,716229.5625,579403.1875,290977.53125,310236.3125,287100.9375,287670.375,-0.068115234375,0.9462890625,0.30908203125,-2.532958745956421,-0.8239745497703552,0.4882812201976776,20.0,159.0,0.0,Rest
251563.796875,293996.34375,716229.5625,579403.1875,290977.53125,310236.3125,287100.9375,287670.375,-0.068115234375,0.9462890625,0.30908203125,-2.532958745956421,-0.8239745497703552,0.4882812201976776,20.0,160.0,0.0,Rest
251563.796875,293996.34375,716229.5625,579403.1875,290977.53125,310236.3125,287100.9375,287670.375,-0.068115234375,0.9462890625,0.30908203125,-2.532958745956421,-0.8239745497703552,0.4882812201976776,20.0,161.0,0.0,Rest
251563.796875,293996.34375,716229.5625,579403.1875,290977.53125,310236.3125,287100.9375,287670.375,-0.068115234375,0.9462890625,0.30908203125,-2.532958745956421,-0.8239745497703552,0.4882812201976776,20.0,162.0,0.0,Rest
251563.796875,293996.34375,716229.5625,579403.1875,290977.53125,310236.3125,287100.9375,287670.375,-0.068115234375,0.9462890625,0.30908203125,-2.532958745956421,-0.8239745497703552,0.4882812201976776,20.0,163.0,0.0,Rest
251563.796875,293996.34375,716229.5625,579403.1875,290977.53125,310236.3125,287100.9375,287670.375,-0.068115234375,0.9462890625,0.30908203125,-2.532958745956421,-0.8239745497703552,0.4882812201976776,20.0,164.0,0.0,Rest
251563.796875,293996.34375,716229.5625,579403.1875,290977.53125,310236.3125,287100.9375,287670.375,-0.068115234375,0.9462890625,0.30908203125,-2.532958745956421,-0.8239745497703552,0.4882812201976776,20.0,165.0,0.0,Rest
251563.796875,293996.34375,716229.5625,579403.1875,290977.53125,310236.3125,287100.9375,287670.375,-0.068115234375,0.9462890625,0.30908203125,-2.532958745956421,-0.8239745497703552,0.4882812201976776,20.0,166.0,0.0,Rest
251563.796875,293996.34375,716229.5625,579403.1875,290977.53125,310236.3125,287100.9375,287670.375,-0.068115234375,0.9462890625,0.30908203125,-2.532958745956421,-0.8239745497703552,0.4882812201976776,20.0,167.0,0.0,Rest
251563.796875,293996.34375,716229.5625,579403.1875,290977.53125,310236.3125,287100.9375,287670.375,-0.068115234375,0.9462890625,0.30908203125,-2.532958745956421,-0.8239745497703552,0.4882812201976776,20.0,168.0,0.0,Rest
251563.796875,293996.34375,716229.5625,579403.1875,290977.53125,310236.3125,287100.9375,287670.375,-0.068115234375,0.9462890625,0.30908203125,-2.532958745956421,-0.8239745497703552,0.4882812201976776,20.0,169.0,0.0,Rest
251563.796875,293996.34375,716229.5625,579403.1875,290977.53125,310236.3125,287100.9375,287670.375,-0.068115234375,0.9462890625,0.30908203125,-2.532958745956421,-0.8239745497703552,0.4882812201976776,20.0,170.0,0.0,Rest
251563.796875,293996.34375,716229.5625,579403.1875,290977.53125,310236.3125,287100.9375,287670.375,-0.068115234375,0.9462890625,0.30908203125,-2.532958745956421,-0.8239745497703552,0.4882812201976776,20.0,171.0,0.0,Rest
251563.796875,293996.34375,716229.5625,579403.1875,290977.53125,310236.3125,287100.9375,287670.375,-0.068115234375,0.9462890625,0.30908203125,-2.532958745956421,-0.8239745497703552,0.4882812201976776,20.0,172.0,0.0,Rest
250836.46875,293148.5,714173.875,574030.75,289790.8125,309405.5625,286118.25,286914.15625,-0.065185546875,0.9462890625,0.3134765625,-1.5563963651657104,-0.5493163466453552,-0.2441406100988388,20.0,173.0,1.0,Rest
250933.65625,293244.4375,713284.0625,573898.5625,289950.78125,309478.96875,286149.1875,286924.96875,-0.0654296875,0.946044921875,0.313720703125,-1.5563963651657104,-0.5798339247703552,-0.1831054538488388,20.0,174.0,1.0,Rest
251180.953125,293489.5,713392.6875,573999.1875,290543.28125,309681.28125,286388.09375,287065.625,-0.066650390625,0.945068359375,0.314208984375,-1.5869139432907104,-0.5493163466453552,-0.2746581733226776,20.0,175.0,1.0,Rest
251203.9375,293504.25,713418.1875,573885.875,290697.875,309678.15625,286438.875,287078.5,-0.067626953125,0.9443359375,0.313720703125,-1.4953612089157104,-0.4577636420726776,-0.3662109076976776,20.0,176.0,1.0,Rest
250941.703125,293230.75,711958.4375,573421.6875,290164.1875,309438.71875,286200.875,286917.65625,-0.06591796875,0.9423828125,0.31640625,-1.6479490995407104,-0.3967284858226776,-0.3662109076976776,20.0,177.0,1.0,Rest
250737.59375,293024.59375,709577.6875,572966.6875,289648.3125,309263.03125,285968.59375,286773.6875,-0.06591796875,0.942626953125,0.314453125,-1.5258787870407104,-0.3967284858226776,-0.3356933295726776,20.0,178.0,1.0,Rest
250850.15625,293149.40625,708288.9375,572874.8125,289837.125,309372.5625,286043.25,286828.59375,-0.067626953125,0.94189453125,0.31298828125,-1.5869139432907104,-0.4272460639476776,-0.3662109076976776,20.0,179.0,1.0,Rest
251103.078125,293387.59375,708484.5,573004.6875,290438.21875,309584.5625,286292.25,286973.0,-0.067626953125,0.94140625,0.310302734375,-1.4953612089157104,-0.4882812201976776,-0.3662109076976776,20.0,180.0,1.0,Rest
251133.03125,293415.75,708566.5,572910.9375,290605.875,309595.0,286365.46875,287002.5,-0.067626953125,0.94091796875,0.315673828125,-1.3122557401657104,-0.4882812201976776,-0.3051757514476776,20.0,181.0,1.0,Rest
250875.453125,293154.125,707156.125,572432.0625,290080.15625,309363.8125,286148.75,286852.90625,-0.0693359375,0.941650390625,0.31494140625,-1.3427733182907104,-0.3967284858226776,-0.1831054538488388,20.0,182.0,1.0,Rest
250667.046875,292937.59375,705023.5,571982.4375,289560.0625,309183.46875,285923.53125,286686.09375,-0.0693359375,0.941162109375,0.316650390625,-1.4038084745407104,-0.2746581733226776,-0.1525878757238388,20.0,183.0,1.0,Rest
250778.359375,293034.5,703904.5625,571889.0,289742.90625,309284.59375,286006.40625,286737.9375,-0.069580078125,0.945068359375,0.31396484375,-1.4038084745407104,-0.3051757514476776,-0.2441406100988388,20.0,184.0,1.0,Rest
251037.28125,293299.875,704138.875,572028.5625,290353.03125,309504.25,286272.9375,286894.5,-0.071533203125,0.946533203125,0.314208984375,-1.4038084745407104,-0.4577636420726776,-0.2746581733226776,20.0,185.0,1.0,Rest
251037.28125,293299.875,704138.875,572028.5625,290353.03125,309504.25,286272.9375,286894.5,-0.071533203125,0.946533203125,0.314208984375,-1.4038084745407104,-0.4577636420726776,-0.2746581733226776,20.0,186.0,0.0,Rest
251037.28125,293299.875,704138.875,572028.5625,290353.03125,309504.25,286272.9375,286894.5,-0.071533203125,0.946533203125,0.314208984375,-1.4038084745407104,-0.4577636420726776,-0.2746581733226776,20.0,187.0,0.0,Rest
251037.28125,293299.875,704138.875,572028.5625,290353.03125,309504.25,286272.9375,286894.5,-0.071533203125,0.946533203125,0.314208984375,-1.4038084745407104,-0.4577636420726776,-0.2746581733226776,20.0,188.0,0.0,Rest
251037.28125,293299.875,704138.875,572028.5625,290353.03125,309504.25,286272.9375,286894.5,-0.071533203125,0.946533203125,0.314208984375,-1.4038084745407104,-0.4577636420726776,-0.2746581733226776,20.0,189.0,0.0,Rest
251037.28125,293299.875,704138.875,572028.5625,290353.03125,309504.25,286272.9375,286894.5,-0.071533203125,0.946533203125,0.314208984375,-1.4038084745407104,-0.4577636420726776,-0.2746581733226776,20.0,190.0,0.0,Rest
251037.28125,293299.875,704138.875,572028.5625,290353.03125,309504.25,286272.9375,286894.5,-0.071533203125,0.946533203125,0.314208984375,-1.4038084745407104,-0.4577636420726776,-0.2746581733226776,20.0,191.0,0.0,Rest
251037.28125,293299.875,704138.875,572028.5625,290353.03125,309504.25,286272.9375,286894.5,-0.071533203125,0.946533203125,0.314208984375,-1.4038084745407104,-0.4577636420726776,-0.2746581733226776,20.0,192.0,0.0,Rest
251037.28125,293299.875,704138.875,572028.5625,290353.03125,309504.25,286272.9375,286894.5,-0.071533203125,0.946533203125,0.314208984375,-1.4038084745407104,-0.4577636420726776,-0.2746581733226776,20.0,193.0,0.0,Rest
251037.28125,293299.875,704138.875,572028.5625,290353.03125,309504.25,286272.9375,286894.5,-0.071533203125,0.946533203125,0.314208984375,-1.4038084745407104,-0.4577636420726776,-0.2746581733226776,20.0,194.0,0.0,Rest
251037.28125,293299.875,704138.875,572028.5625,290353.03125,309504.25,286272.9375,286894.5,-0.071533203125,0.946533203125,0.314208984375,-1.4038084745407104,-0.4577636420726776,-0.2746581733226776,20.0,195.0,0.0,Rest
251037.28125,293299.875,704138.875,572028.5625,290353.03125,309504.25,286272.9375,286894.5,-0.071533203125,0.946533203125,0.314208984375,-1.4038084745407104,-0.4577636420726776,-0.2746581733226776,20.0,196.0,0.0,Rest
251037.28125,293299.875,704138.875,572028.5625,290353.03125,309504.25,286272.9375,286894.5,-0.071533203125,0.946533203125,0.314208984375,-1.4038084745407104,-0.4577636420726776,-0.2746581733226776,20.0,197.0,0.0,Rest
251037.28125,293299.875,704138.875,572028.5625,290353.03125,309504.25,286272.9375,286894.5,-0.071533203125,0.946533203125,0.314208984375,-1.4038084745407104,-0.4577636420726776,-0.2746581733226776,20.0,198.0,0.0,Rest
251037.28125,293299.875,704138.875,572028.5625,290353.03125,309504.25,286272.9375,286894.5,-0.071533203125,0.946533203125,0.314208984375,-1.4038084745407104,-0.4577636420726776,-0.2746581733226776,20.0,199.0,0.0,Rest
251037.28125,293299.875,704138.875,572028.5625,290353.03125,309504.25,286272.9375,286894.5,-0.071533203125,0.946533203125,0.314208984375,-1.4038084745407104,-0.4577636420726776,-0.2746581733226776,20.0,200.0,0.0,Rest
251037.28125,293299.875,704138.875,572028.5625,290353.03125,309504.25,286272.9375,286894.5,-0.071533203125,0.946533203125,0.314208984375,-1.4038084745407104,-0.4577636420726776,-0.2746581733226776,20.0,201.0,0.0,Rest
251037.28125,293299.875,704138.875,572028.5625,290353.03125,309504.25,286272.9375,286894.5,-0.071533203125,0.946533203125,0.314208984375,-1.4038084745407104,-0.4577636420726776,-0.2746581733226776,20.0,202.0,0.0,Rest
251037.28125,293299.875,704138.875,572028.5625,290353.03125,309504.25,286272.9375,286894.5,-0.071533203125,0.946533203125,0.314208984375,-1.4038084745407104,-0.4577636420726776,-0.2746581733226776,20.0,203.0,0.0,Rest
251037.28125,293299.875,704138.875,572028.5625,290353.03125,309504.25,286272.9375,286894.5,-0.071533203125,0.946533203125,0.314208984375,-1.4038084745407104,-0.4577636420726776,-0.2746581733226776,20.0,204.0,0.0,Rest
251037.28125,293299.875,704138.875,572028.5625,290353.03125,309504.25,286272.9375,286894.5,-0.071533203125,0.946533203125,0.314208984375,-1.4038084745407104,-0.4577636420726776,-0.2746581733226776,20.0,205.0,0.0,Rest
251037.28125,293299.875,704138.875,572028.5625,290353.03125,309504.25,286272.9375,286894.5,-0.071533203125,0.946533203125,0.314208984375,-1.4038084745407104,-0.4577636420726776,-0.2746581733226776,20.0,206.0,0.0,Rest
251037.28125,293299.875,704138.875,572028.5625,290353.03125,309504.25,286272.9375,286894.5,-0.071533203125,0.946533203125,0.314208984375,-1.4038084745407104,-0.4577636420726776,-0.2746581733226776,20.0,207.0,0.0,Rest
250415.90625,292600.8125,686460.0,567634.375,289198.78125,308843.71875,285704.46875,286373.0625,-0.070556640625,0.94482421875,0.314697265625,-2.471923589706421,-0.7629393935203552,0.4577636420726776,20.0,208.0,1.0,Rest
250537.9375,292725.4375,685700.3125,567578.6875,289395.125,308954.15625,285782.8125,286424.3125,-0.069580078125,0.946533203125,0.315185546875,-2.593993902206421,-0.8544921278953552,0.5187987685203552,20.0,209.0,1.0,Rest
250796.328125,292986.78125,686350.375,567723.0625,290005.03125,309171.40625,286034.5625,286578.25,-0.070068359375,0.945068359375,0.314453125,-2.746581792831421,-0.9155272841453552,0.5187987685203552,20.0,210.0,1.0,Rest
250833.34375,293020.5625,686864.6875,567665.75,290182.6875,309195.90625,286115.21875,286618.3125,-0.067626953125,0.94482421875,0.31689453125,-2.777099370956421,-0.8850097060203552,0.6713866591453552,20.0,211.0,1.0,Rest
250572.09375,292751.71875,685963.1875,567240.0,289656.375,308963.34375,285880.6875,286464.71875,-0.069091796875,0.945068359375,0.31689453125,-2.868652105331421,-0.9155272841453552,0.5798339247703552,20.0,212.0,1.0,Rest
250371.375,292537.21875,684325.4375,566833.75,289145.21875,308777.46875,285637.25,286325.6875,-0.070068359375,0.944091796875,0.317626953125,-2.990722417831421,-0.8239745497703552,0.6103515028953552,20.0,213.0,1.0,Rest
250494.9375,292662.125,683627.5,566804.0625,289337.96875,308885.5625,285691.4375,286371.09375,-0.06982421875,0.94580078125,0.320068359375,-3.173827886581421,-0.8544921278953552,0.6713866591453552,20.0,214.0,1.0,Rest
250747.25,292928.75,684233.3125,566937.4375,289942.0,309106.65625,285926.125,286511.03125,-0.07080078125,0.9423828125,0.32177734375,-3.326415777206421,-0.9460448622703552,0.7019042372703552,20.0,215.0,1.0,Rest
250772.8125,292965.40625,684703.1875,566878.1875,290109.90625,309114.71875,285983.6875,286537.75,-0.06982421875,0.941162109375,0.319091796875,-3.479003667831421,-1.0375975370407104,0.7324218153953552,20.0,216.0,1.0,Rest
250527.21875,292699.15625,683777.5625,566486.0625,289595.75,308889.0625,285756.6875,286396.40625,-0.071533203125,0.935546875,0.319580078125,-3.479003667831421,-1.0070799589157104,0.7019042372703552,20.0,217.0,1.0,Rest
250328.640625,292491.09375,682119.0625,566074.25,289092.90625,308722.3125,285533.96875,286270.78125,-0.0712890625,0.934326171875,0.3203125,-3.509521245956421,-1.0375975370407104,0.7934569716453552,20.0,218.0,1.0,Rest
250440.046875,292618.21875,681378.75,566002.25,289273.6875,308833.09375,285598.1875,286314.3125,-0.0703125,0.9326171875,0.3193359375,-3.448486089706421,-0.9765624403953552,0.7019042372703552,20.0,219.0,1.0,Rest
250700.9375,292874.125,681964.0,566176.4375,289888.375,309062.59375,285856.125,286472.5625,-0.06982421875,0.931884765625,0.3173828125,-3.417968511581421,-1.0681151151657104,0.7324218153953552,20.0,220.0,1.0,Rest
250738.21875,292902.8125,682424.8125,566130.75,290060.46875,309081.53125,285930.15625,286508.78125,-0.070556640625,0.93115234375,0.318115234375,-3.234863042831421,-1.1291502714157104,0.7019042372703552,20.0,221.0,1.0,Rest
250499.3125,292659.0,681488.6875,565754.6875,289554.25,308872.78125,285718.15625,286386.21875,-0.071044921875,0.93359375,0.32080078125,-3.051757574081421,-1.2512205839157104,0.7019042372703552,20.0,222.0,1.0,Rest
250300.125,292454.8125,679806.8125,565341.625,289041.6875,308699.96875,285482.03125,286236.28125,-0.06787109375,0.9326171875,0.322265625,-2.899169683456421,-1.2817381620407104,0.7324218153953552,20.0,223.0,1.0,Rest
250423.40625,292586.40625,679073.0,565287.25,289232.75,308814.65625,285551.25,286291.0,-0.0703125,0.93505859375,0.3232421875,-2.868652105331421,-1.3427733182907104,0.8850097060203552,20.0,224.0,1.0,Rest
250694.765625,292857.75,679667.6875,565471.375,289852.78125,309042.84375,285816.59375,286441.5625,-0.06640625,0.938232421875,0.32373046875,-2.838134527206421,-1.3122557401657104,0.7934569716453552,20.0,225.0,1.0,Rest
250735.984375,292898.4375,680131.3125,565432.625,290033.9375,309055.71875,285893.03125,286477.5,-0.067626953125,0.94091796875,0.322998046875,-2.716064214706421,-1.3122557401657104,0.9765624403953552,20.0,226.0,1.0,Rest
250491.453125,292642.8125,679189.4375,565040.125,289517.5,308828.78125,285663.71875,286326.03125,-0.068359375,0.941650390625,0.3232421875,-2.746581792831421,-1.3427733182907104,1.0681151151657104,20.0,227.0,1.0,Rest
250302.796875,292454.09375,677524.75,564656.6875,289029.78125,308680.5625,285459.0625,286208.03125,-0.068359375,0.9443359375,0.322021484375,-2.807616949081421,-1.3427733182907104,1.1291502714157104,20.0,228.0,1.0,Rest
250424.125,292582.03125,676801.5625,564622.1875,289236.6875,308800.8125,285542.3125,286266.3125,-0.06787109375,0.945068359375,0.322998046875,-2.838134527206421,-1.3122557401657104,1.2512205839157104,20.0,229.0,1.0,Rest
250682.875,292837.1875,677391.9375,564792.5,289852.53125,309017.96875,285799.0625,286421.34375,-0.06689453125,0.948974609375,0.3232421875,-2.777099370956421,-1.2512205839157104,1.1901854276657104,20.0,230.0,1.0,Rest
250722.03125,292880.65625,677846.625,564741.8125,290024.4375,309038.0,285870.59375,286450.5,-0.06494140625,0.94921875,0.32373046875,-2.807616949081421,-1.2512205839157104,1.2207030057907104,20.0,231.0,1.0,Rest
250473.03125,292627.0,676906.3125,564358.4375,289505.96875,308811.96875,285644.9375,286305.5625,-0.06494140625,0.945556640625,0.323486328125,-2.838134527206421,-1.1596678495407104,1.4038084745407104,20.0,232.0,1.0,Rest
250272.140625,292394.28125,675235.125,563972.625,289000.125,308641.5,285429.90625,286180.65625,-0.063720703125,0.944091796875,0.32177734375,-2.960204839706421,-1.1596678495407104,1.4038084745407104,20.0,233.0,1.0,Rest
250390.328125,292514.25,674500.75,563930.875,289189.9375,308751.1875,285499.1875,286231.1875,-0.06298828125,0.942626953125,0.322509765625,-2.868652105331421,-1.1291502714157104,1.4038084745407104,20.0,234.0,1.0,Rest
250644.25,292777.5625,675086.125,564091.6875,289792.53125,308964.0625,285736.75,286377.96875,-0.064697265625,0.94384765625,0.319580078125,-2.899169683456421,-1.0986326932907104,1.4953612089157104,20.0,235.0,1.0,Rest
250676.609375,292805.09375,675547.1875,564047.3125,289960.15625,308979.1875,285798.09375,286406.25,-0.065185546875,0.944091796875,0.32080078125,-2.807616949081421,-1.0375975370407104,1.5563963651657104,20.0,236.0,1.0,Rest
250443.703125,292562.71875,674621.4375,563672.9375,289454.84375,308774.0625,285593.78125,286279.8125,-0.06396484375,0.942138671875,0.322021484375,-2.716064214706421,-0.9460448622703552,1.4343260526657104,20.0,237.0,1.0,Rest
250248.71875,292367.53125,672968.875,563294.3125,288960.0625,308624.5,285389.6875,286157.875,-0.064208984375,0.940673828125,0.324462890625,-2.655029058456421,-0.9460448622703552,1.4648436307907104,20.0,238.0,1.0,Rest
250358.59375,292478.3125,672245.125,563254.625,289148.96875,308735.375,285459.78125,286209.0,-0.0654296875,0.94189453125,0.323486328125,-2.593993902206421,-0.8850097060203552,1.4343260526657104,20.0,239.0,1.0,Rest
250617.421875,292742.6875,672838.875,563423.25,289756.6875,308943.9375,285700.625,286355.71875,-0.0634765625,0.94140625,0.324462890625,-2.471923589706421,-0.7934569716453552,1.4648436307907104,20.0,240.0,1.0,Rest
250655.25,292784.53125,673313.3125,563390.5625,289934.40625,308959.9375,285774.9375,286380.9375,-0.06396484375,0.940185546875,0.319091796875,-2.258300542831421,-0.7934569716453552,1.4343260526657104,20.0,241.0,1.0,Rest
250406.96875,292521.59375,672391.9375,563006.5625,289419.78125,308744.125,285554.28125,286238.15625,-0.064453125,0.941162109375,0.3212890625,-2.166747808456421,-0.7934569716453552,1.2512205839157104,20.0,242.0,1.0,Rest
250205.078125,292317.65625,670733.4375,562619.4375,288912.21875,308581.3125,285330.65625,286107.25,-0.067138671875,0.94287109375,0.32421875,-1.9226073026657104,-0.7629393935203552,1.3732908964157104,20.0,243.0,1.0,Rest
250323.359375,292441.5625,670024.6875,562594.25,289107.21875,308693.6875,285404.875,286168.875,-0.065673828125,0.943115234375,0.323486328125,-1.9226073026657104,-0.7324218153953552,1.2817381620407104,20.0,244.0,1.0,Rest
250586.140625,292710.40625,670632.5625,562788.1875,289726.8125,308920.71875,285667.125,286342.125,-0.066162109375,0.945068359375,0.32373046875,-1.8310545682907104,-0.7934569716453552,1.2817381620407104,20.0,245.0,1.0,Rest
250624.125,292752.53125,671112.5625,562778.0625,289903.46875,308935.625,285740.96875,286363.9375,-0.06884765625,0.943603515625,0.323486328125,-1.8005369901657104,-0.8544921278953552,1.2512205839157104,20.0,246.0,1.0,Rest
250386.3125,292523.1875,670201.5625,562407.3125,289398.0625,308723.65625,285527.09375,286221.25,-0.068359375,0.94287109375,0.322021484375,-1.7700194120407104,-0.8239745497703552,1.1291502714157104,20.0,247.0,1.0,Rest
250185.5,292290.46875,668557.0625,561986.75,288890.15625,308560.46875,285311.28125,286086.0625,-0.067138671875,0.942138671875,0.32177734375,-1.6174315214157104,-0.8850097060203552,1.0986326932907104,20.0,248.0,1.0,Rest
250310.84375,292414.5625,667864.375,561955.4375,289085.75,308672.5,285386.1875,286139.4375,-0.063232421875,0.943603515625,0.32080078125,-1.4648436307907104,-0.8850097060203552,1.0986326932907104,20.0,249.0,1.0,Rest
250572.8125,292689.5,668485.125,562148.375,289696.875,308890.65625,285628.40625,286286.34375,-0.0615234375,0.94677734375,0.322998046875,-1.3122557401657104,-0.9765624403953552,1.1291502714157104,20.0,250.0,1.0,Rest
250612.59375,292729.71875,668973.6875,562126.125,289874.5,308907.90625,285691.78125,286316.84375,-0.05810546875,0.946044921875,0.3203125,-1.3427733182907104,-0.8850097060203552,1.1291502714157104,20.0,251.0,1.0,Rest
250364.578125,292470.1875,668065.3125,561746.75,289356.03125,308680.75,285465.3125,286173.25,-0.058349609375,0.9443359375,0.322021484375,-1.2207030057907104,-0.7934569716453552,1.2207030057907104,13.333333969116211,252.0,1.0,Rest
250176.65625,292279.375,666431.6875,561382.0625,288858.125,308524.8125,285249.40625,286046.90625,-0.05859375,0.94091796875,0.32080078125,-1.2817381620407104,-0.7629393935203552,1.1291502714157104,13.333333969116211,253.0,1.0,Rest
250298.328125,292401.96875,665745.9375,561370.1875,289053.84375,308637.46875,285327.375,286103.875,-0.05908203125,0.939453125,0.32275390625,-1.2512205839157104,-0.7629393935203552,1.0986326932907104,13.333333969116211,254.0,1.0,Rest
250565.296875,292667.75,666377.625,561564.0625,289671.8125,308862.0625,285588.96875,286273.1875,-0.060546875,0.936767578125,0.321044921875,-1.1901854276657104,-0.7324218153953552,1.0986326932907104,13.333333969116211,255.0,1.0,Rest
250594.53125,292701.84375,666874.9375,561523.6875,289837.40625,308861.875,285642.15625,286304.03125,-0.0634765625,0.93310546875,0.3212890625,-1.0681151151657104,-0.6713866591453552,1.0375975370407104,13.333333969116211,256.0,1.0,Rest
250346.609375,292444.875,665979.3125,561152.5625,289319.84375,308645.0625,285413.8125,286159.84375,-0.06103515625,0.931640625,0.322265625,-0.9765624403953552,-0.5493163466453552,0.8850097060203552,13.333333969116211,257.0,1.0,Rest
250152.78125,292228.78125,664353.75,560784.4375,288823.53125,308489.125,285194.6875,286033.21875,-0.061279296875,0.930908203125,0.321533203125,-0.8850097060203552,-0.5493163466453552,0.8544921278953552,13.333333969116211,258.0,1.0,Rest
250273.03125,292352.59375,663673.3125,560768.0,289021.125,308604.1875,285274.34375,286092.875,-0.064208984375,0.93017578125,0.320556640625,-0.7629393935203552,-0.6103515028953552,0.7934569716453552,13.333333969116211,259.0,1.0,Rest
250530.96875,292627.09375,664314.0625,560960.0625,289640.96875,308833.4375,285535.78125,286259.78125,-0.06591796875,0.930908203125,0.318359375,-0.6408690810203552,-0.7019042372703552,0.6713866591453552,13.333333969116211,260.0,1.0,Rest
250572.984375,292674.84375,664823.5,560937.0,289820.34375,308861.53125,285618.03125,286292.15625,-0.064208984375,0.9326171875,0.320556640625,-0.4577636420726776,-0.6408690810203552,0.5493163466453552,13.333333969116211,261.0,1.0,Rest
250331.140625,292424.84375,663932.875,560569.1875,289300.53125,308639.4375,285389.0625,286138.5625,-0.063720703125,0.931884765625,0.31982421875,-0.3967284858226776,-0.7324218153953552,0.3662109076976776,13.333333969116211,262.0,1.0,Rest
250135.796875,292208.5625,662315.5625,560193.3125,288795.5625,308476.53125,285164.8125,286011.5,-0.0634765625,0.93212890625,0.321044921875,-0.4272460639476776,-0.7629393935203552,0.2136230319738388,13.333333969116211,263.0,1.0,Rest
250260.96875,292334.28125,661650.75,560184.1875,289002.53125,308603.21875,285249.84375,286081.15625,-0.064208984375,0.93310546875,0.321533203125,-0.3356933295726776,-0.7934569716453552,0.0,13.333333969116211,264.0,1.0,Rest
250529.625,292620.03125,662306.0,560391.1875,289624.09375,308835.0625,285511.28125,286239.5,-0.066162109375,0.935546875,0.3212890625,-0.2746581733226776,-0.8544921278953552,-0.1831054538488388,13.333333969116211,265.0,1.0,Rest
250568.34375,292660.0,662823.9375,560380.0625,289803.625,308859.46875,285593.0,286281.5,-0.068359375,0.940185546875,0.3232421875,-0.2746581733226776,-0.7934569716453552,-0.3662109076976776,13.333333969116211,266.0,1.0,Rest
250324.703125,292397.9375,661947.9375,560011.4375,289291.3125,308641.84375,285373.3125,286137.375,-0.0673828125,0.947509765625,0.321533203125,-0.4882812201976776,-0.8850097060203552,-0.5798339247703552,13.333333969116211,267.0,1.0,Rest
250130.421875,292195.78125,660337.4375,559626.0,288790.28125,308479.84375,285152.46875,285998.4375,-0.066650390625,0.951171875,0.324462890625,-0.7019042372703552,-0.9460448622703552,-0.6713866591453552,13.333333969116211,268.0,1.0,Rest
250260.25,292334.375,659687.8125,559638.4375,289001.625,308603.03125,285242.0625,286073.09375,-0.067626953125,0.955078125,0.323486328125,-0.8850097060203552,-1.0070799589157104,-0.7019042372703552,13.333333969116211,269.0,1.0,Rest
250522.203125,292607.6875,660344.25,559833.6875,289618.1875,308828.53125,285500.1875,286221.78125,-0.0634765625,0.95947265625,0.32421875,-1.1291502714157104,-0.9765624403953552,-0.7629393935203552,13.333333969116211,270.0,1.0,Rest
250522.203125,292607.6875,660344.25,559833.6875,289618.1875,308828.53125,285500.1875,286221.78125,-0.0634765625,0.95947265625,0.32421875,-1.1291502714157104,-0.9765624403953552,-0.7629393935203552,13.333333969116211,271.0,0.0,Rest
250522.203125,292607.6875,660344.25,559833.6875,289618.1875,308828.53125,285500.1875,286221.78125,-0.0634765625,0.95947265625,0.32421875,-1.1291502714157104,-0.9765624403953552,-0.7629393935203552,13.333333969116211,272.0,0.0,Rest
250522.203125,292607.6875,660344.25,559833.6875,289618.1875,308828.53125,285500.1875,286221.78125,-0.0634765625,0.95947265625,0.32421875,-1.1291502714157104,-0.9765624403953552,-0.7629393935203552,13.333333969116211,273.0,0.0,Rest
250522.203125,292607.6875,660344.25,559833.6875,289618.1875,308828.53125,285500.1875,286221.78125,-0.0634765625,0.95947265625,0.32421875,-1.1291502714157104,-0.9765624403953552,-0.7629393935203552,13.333333969116211,274.0,0.0,Rest
250522.203125,292607.6875,660344.25,559833.6875,289618.1875,308828.53125,285500.1875,286221.78125,-0.0634765625,0.95947265625,0.32421875,-1.1291502714157104,-0.9765624403953552,-0.7629393935203552,13.333333969116211,275.0,0.0,Rest
250522.203125,292607.6875,660344.25,559833.6875,289618.1875,308828.53125,285500.1875,286221.78125,-0.0634765625,0.95947265625,0.32421875,-1.1291502714157104,-0.9765624403953552,-0.7629393935203552,13.333333969116211,276.0,0.0,Rest
250522.203125,292607.6875,660344.25,559833.6875,289618.1875,308828.53125,285500.1875,286221.78125,-0.0634765625,0.95947265625,0.32421875,-1.1291502714157104,-0.9765624403953552,-0.7629393935203552,13.333333969116211,277.0,0.0,Rest
250522.203125,292607.6875,660344.25,559833.6875,289618.1875,308828.53125,285500.1875,286221.78125,-0.0634765625,0.95947265625,0.32421875,-1.1291502714157104,-0.9765624403953552,-0.7629393935203552,13.333333969116211,278.0,0.0,Rest
250522.203125,292607.6875,660344.25,559833.6875,289618.1875,308828.53125,285500.1875,286221.78125,-0.0634765625,0.95947265625,0.32421875,-1.1291502714157104,-0.9765624403953552,-0.7629393935203552,13.333333969116211,279.0,0.0,Rest
250522.203125,292607.6875,660344.25,559833.6875,289618.1875,308828.53125,285500.1875,286221.78125,-0.0634765625,0.95947265625,0.32421875,-1.1291502714157104,-0.9765624403953552,-0.7629393935203552,13.333333969116211,280.0,0.0,Rest
250522.203125,292607.6875,660344.25,559833.6875,289618.1875,308828.53125,285500.1875,286221.78125,-0.0634765625,0.95947265625,0.32421875,-1.1291502714157104,-0.9765624403953552,-0.7629393935203552,13.333333969116211,281.0,0.0,Rest
250522.203125,292607.6875,660344.25,559833.6875,289618.1875,308828.53125,285500.1875,286221.78125,-0.0634765625,0.95947265625,0.32421875,-1.1291502714157104,-0.9765624403953552,-0.7629393935203552,13.333333969116211,282.0,0.0,Rest
250522.203125,292607.6875,660344.25,559833.6875,289618.1875,308828.53125,285500.1875,286221.78125,-0.0634765625,0.95947265625,0.32421875,-1.1291502714157104,-0.9765624403953552,-0.7629393935203552,13.333333969116211,283.0,0.0,Rest
250522.203125,292607.6875,660344.25,559833.6875,289618.1875,308828.53125,285500.1875,286221.78125,-0.0634765625,0.95947265625,0.32421875,-1.1291502714157104,-0.9765624403953552,-0.7629393935203552,13.333333969116211,284.0,0.0,Rest
250522.203125,292607.6875,660344.25,559833.6875,289618.1875,308828.53125,285500.1875,286221.78125,-0.0634765625,0.95947265625,0.32421875,-1.1291502714157104,-0.9765624403953552,-0.7629393935203552,13.333333969116211,285.0,0.0,Rest
250522.203125,292607.6875,660344.25,559833.6875,289618.1875,308828.53125,285500.1875,286221.78125,-0.0634765625,0.95947265625,0.32421875,-1.1291502714157104,-0.9765624403953552,-0.7629393935203552,13.333333969116211,286.0,0.0,Rest
250522.203125,292607.6875,660344.25,559833.6875,289618.1875,308828.53125,285500.1875,286221.78125,-0.0634765625,0.95947265625,0.32421875,-1.1291502714157104,-0.9765624403953552,-0.7629393935203552,13.333333969116211,287.0,0.0,Rest
250079.734375,292134.09375,652912.875,557442.8125,288713.28125,308421.09375,285013.625,285942.3125,-0.068359375,0.933837890625,0.33447265625,-0.9765624403953552,-1.1291502714157104,0.4882812201976776,13.333333969116211,288.0,1.0,Rest
250208.296875,292253.46875,652298.0625,557433.25,288916.96875,308538.21875,285095.96875,286007.65625,-0.068115234375,0.936279296875,0.334716796875,-0.8544921278953552,-1.1291502714157104,0.5187987685203552,13.333333969116211,289.0,1.0,Rest
250478.9375,292539.75,653005.0,557633.5,289540.84375,308767.28125,285360.96875,286171.0,-0.068115234375,0.93603515625,0.334228515625,-0.7019042372703552,-1.2512205839157104,0.5493163466453552,13.333333969116211,290.0,1.0,Rest
250527.578125,292590.78125,653577.8125,557637.5,289725.84375,308793.75,285445.03125,286200.15625,-0.066650390625,0.9375,0.3359375,-0.7324218153953552,-1.2817381620407104,0.5187987685203552,13.333333969116211,291.0,1.0,Rest
250281.078125,292320.40625,652741.5,557275.5,289208.4375,308580.0625,285232.15625,286061.3125,-0.0654296875,0.9384765625,0.333251953125,-0.6408690810203552,-1.3427733182907104,0.6103515028953552,13.333333969116211,292.0,1.0,Rest
250090.46875,292113.8125,651179.5625,556913.875,288706.3125,308412.59375,285018.28125,285935.40625,-0.065185546875,0.9375,0.330322265625,-0.5798339247703552,-1.3732908964157104,0.6408690810203552,13.333333969116211,293.0,1.0,Rest
250216.25,292239.0625,650574.1875,556913.875,288905.78125,308515.40625,285090.53125,285986.65625,-0.064208984375,0.93896484375,0.331298828125,-0.5493163466453552,-1.4343260526657104,0.5798339247703552,13.333333969116211,294.0,1.0,Rest
250485.1875,292515.15625,651283.3125,557123.1875,289522.6875,308737.34375,285337.71875,286144.71875,-0.062744140625,0.9404296875,0.330810546875,-0.7019042372703552,-1.4648436307907104,0.6408690810203552,13.333333969116211,295.0,1.0,Rest
250522.5625,292558.0625,651857.4375,557119.5625,289700.09375,308760.03125,285415.0625,286184.96875,-0.06201171875,0.940673828125,0.3310546875,-0.7324218153953552,-1.4648436307907104,0.6103515028953552,13.333333969116211,296.0,1.0,Rest
250282.6875,292303.625,651032.5,556777.3125,289187.6875,308539.90625,285193.6875,286037.625,-0.06201171875,0.93896484375,0.335205078125,-0.8544921278953552,-1.4343260526657104,0.7324218153953552,13.333333969116211,297.0,1.0,Rest
250083.578125,292088.9375,649480.0625,556406.3125,288672.15625,308357.15625,284944.875,285886.59375,-0.061767578125,0.940185546875,0.332763671875,-0.9765624403953552,-1.4038084745407104,0.7324218153953552,13.333333969116211,298.0,1.0,Rest
250206.25,292211.96875,648877.3125,556390.0,288862.78125,308462.5,285006.75,285934.53125,-0.060546875,0.93896484375,0.33154296875,-1.0375975370407104,-1.4038084745407104,0.8239745497703552,13.333333969116211,299.0,1.0,Rest
250475.0,292488.59375,649600.1875,556609.3125,289486.21875,308686.46875,285268.90625,286108.25,-0.061279296875,0.939208984375,0.330322265625,-1.0681151151657104,-1.4953612089157104,0.7019042372703552,13.333333969116211,300.0,1.0,Rest
250475.0,292488.59375,649600.1875,556609.3125,289486.21875,308686.46875,285268.90625,286108.25,-0.061279296875,0.939208984375,0.330322265625,-1.0681151151657104,-1.4953612089157104,0.7019042372703552,13.333333969116211,301.0,0.0,Rest
250475.0,292488.59375,649600.1875,556609.3125,289486.21875,308686.46875,285268.90625,286108.25,-0.061279296875,0.939208984375,0.330322265625,-1.0681151151657104,-1.4953612089157104,0.7019042372703552,13.333333969116211,302.0,0.0,Rest
250475.0,292488.59375,649600.1875,556609.3125,289486.21875,308686.46875,285268.90625,286108.25,-0.061279296875,0.939208984375,0.330322265625,-1.0681151151657104,-1.4953612089157104,0.7019042372703552,13.333333969116211,303.0,0.0,Rest
250475.0,292488.59375,649600.1875,556609.3125,289486.21875,308686.46875,285268.90625,286108.25,-0.061279296875,0.939208984375,0.330322265625,-1.0681151151657104,-1.4953612089157104,0.7019042372703552,13.333333969116211,304.0,0.0,Rest
250475.0,292488.59375,649600.1875,556609.3125,289486.21875,308686.46875,285268.90625,286108.25,-0.061279296875,0.939208984375,0.330322265625,-1.0681151151657104,-1.4953612089157104,0.7019042372703552,13.333333969116211,305.0,0.0,Rest
250475.0,292488.59375,649600.1875,556609.3125,289486.21875,308686.46875,285268.90625,286108.25,-0.061279296875,0.939208984375,0.330322265625,-1.0681151151657104,-1.4953612089157104,0.7019042372703552,13.333333969116211,306.0,0.0,Rest
250475.0,292488.59375,649600.1875,556609.3125,289486.21875,308686.46875,285268.90625,286108.25,-0.061279296875,0.939208984375,0.330322265625,-1.0681151151657104,-1.4953612089157104,0.7019042372703552,13.333333969116211,307.0,0.0,Rest
250475.0,292488.59375,649600.1875,556609.3125,289486.21875,308686.46875,285268.90625,286108.25,-0.061279296875,0.939208984375,0.330322265625,-1.0681151151657104,-1.4953612089157104,0.7019042372703552,13.333333969116211,308.0,0.0,Rest
250475.0,292488.59375,649600.1875,556609.3125,289486.21875,308686.46875,285268.90625,286108.25,-0.061279296875,0.939208984375,0.330322265625,-1.0681151151657104,-1.4953612089157104,0.7019042372703552,13.333333969116211,309.0,0.0,Rest
250475.0,292488.59375,649600.1875,556609.3125,289486.21875,308686.46875,285268.90625,286108.25,-0.061279296875,0.939208984375,0.330322265625,-1.0681151151657104,-1.4953612089157104,0.7019042372703552,13.333333969116211,310.0,0.0,Rest
250475.0,292488.59375,649600.1875,556609.3125,289486.21875,308686.46875,285268.90625,286108.25,-0.061279296875,0.939208984375,0.330322265625,-1.0681151151657104,-1.4953612089157104,0.7019042372703552,13.333333969116211,311.0,0.0,Rest
250475.0,292488.59375,649600.1875,556609.3125,289486.21875,308686.46875,285268.90625,286108.25,-0.061279296875,0.939208984375,0.330322265625,-1.0681151151657104,-1.4953612089157104,0.7019042372703552,13.333333969116211,312.0,0.0,Rest
250475.0,292488.59375,649600.1875,556609.3125,289486.21875,308686.46875,285268.90625,286108.25,-0.061279296875,0.939208984375,0.330322265625,-1.0681151151657104,-1.4953612089157104,0.7019042372703552,13.333333969116211,313.0,0.0,Rest
250475.0,292488.59375,649600.1875,556609.3125,289486.21875,308686.46875,285268.90625,286108.25,-0.061279296875,0.939208984375,0.330322265625,-1.0681151151657104,-1.4953612089157104,0.7019042372703552,13.333333969116211,314.0,0.0,Rest
250475.0,292488.59375,649600.1875,556609.3125,289486.21875,308686.46875,285268.90625,286108.25,-0.061279296875,0.939208984375,0.330322265625,-1.0681151151657104,-1.4953612089157104,0.7019042372703552,13.333333969116211,315.0,0.0,Rest
250475.0,292488.59375,649600.1875,556609.3125,289486.21875,308686.46875,285268.90625,286108.25,-0.061279296875,0.939208984375,0.330322265625,-1.0681151151657104,-1.4953612089157104,0.7019042372703552,13.333333969116211,316.0,0.0,Rest
250475.0,292488.59375,649600.1875,556609.3125,289486.21875,308686.46875,285268.90625,286108.25,-0.061279296875,0.939208984375,0.330322265625,-1.0681151151657104,-1.4953612089157104,0.7019042372703552,13.333333969116211,317.0,0.0,Rest
250475.0,292488.59375,649600.1875,556609.3125,289486.21875,308686.46875,285268.90625,286108.25,-0.061279296875,0.939208984375,0.330322265625,-1.0681151151657104,-1.4953612089157104,0.7019042372703552,13.333333969116211,318.0,0.0,Rest
250475.0,292488.59375,649600.1875,556609.3125,289486.21875,308686.46875,285268.90625,286108.25,-0.061279296875,0.939208984375,0.330322265625,-1.0681151151657104,-1.4953612089157104,0.7019042372703552,13.333333969116211,319.0,0.0,Rest
250475.0,292488.59375,649600.1875,556609.3125,289486.21875,308686.46875,285268.90625,286108.25,-0.061279296875,0.939208984375,0.330322265625,-1.0681151151657104,-1.4953612089157104,0.7019042372703552,13.333333969116211,320.0,0.0,Rest
250475.0,292488.59375,649600.1875,556609.3125,289486.21875,308686.46875,285268.90625,286108.25,-0.061279296875,0.939208984375,0.330322265625,-1.0681151151657104,-1.4953612089157104,0.7019042372703552,13.333333969116211,321.0,0.0,Rest
250475.0,292488.59375,649600.1875,556609.3125,289486.21875,308686.46875,285268.90625,286108.25,-0.061279296875,0.939208984375,0.330322265625,-1.0681151151657104,-1.4953612089157104,0.7019042372703552,13.333333969116211,322.0,0.0,Rest
250475.0,292488.59375,649600.1875,556609.3125,289486.21875,308686.46875,285268.90625,286108.25,-0.061279296875,0.939208984375,0.330322265625,-1.0681151151657104,-1.4953612089157104,0.7019042372703552,13.333333969116211,323.0,0.0,Rest
250475.0,292488.59375,649600.1875,556609.3125,289486.21875,308686.46875,285268.90625,286108.25,-0.061279296875,0.939208984375,0.330322265625,-1.0681151151657104,-1.4953612089157104,0.7019042372703552,13.333333969116211,324.0,0.0,Rest
250475.0,292488.59375,649600.1875,556609.3125,289486.21875,308686.46875,285268.90625,286108.25,-0.061279296875,0.939208984375,0.330322265625,-1.0681151151657104,-1.4953612089157104,0.7019042372703552,13.333333969116211,325.0,0.0,Rest
250475.0,292488.59375,649600.1875,556609.3125,289486.21875,308686.46875,285268.90625,286108.25,-0.061279296875,0.939208984375,0.330322265625,-1.0681151151657104,-1.4953612089157104,0.7019042372703552,13.333333969116211,326.0,0.0,Rest
250475.0,292488.59375,649600.1875,556609.3125,289486.21875,308686.46875,285268.90625,286108.25,-0.061279296875,0.939208984375,0.330322265625,-1.0681151151657104,-1.4953612089157104,0.7019042372703552,13.333333969116211,327.0,0.0,Rest
250475.0,292488.59375,649600.1875,556609.3125,289486.21875,308686.46875,285268.90625,286108.25,-0.061279296875,0.939208984375,0.330322265625,-1.0681151151657104,-1.4953612089157104,0.7019042372703552,13.333333969116211,328.0,0.0,Rest
250475.0,292488.59375,649600.1875,556609.3125,289486.21875,308686.46875,285268.90625,286108.25,-0.061279296875,0.939208984375,0.330322265625,-1.0681151151657104,-1.4953612089157104,0.7019042372703552,13.333333969116211,329.0,0.0,Rest
250475.0,292488.59375,649600.1875,556609.3125,289486.21875,308686.46875,285268.90625,286108.25,-0.061279296875,0.939208984375,0.330322265625,-1.0681151151657104,-1.4953612089157104,0.7019042372703552,13.333333969116211,330.0,0.0,Rest
250475.0,292488.59375,649600.1875,556609.3125,289486.21875,308686.46875,285268.90625,286108.25,-0.061279296875,0.939208984375,0.330322265625,-1.0681151151657104,-1.4953612089157104,0.7019042372703552,13.333333969116211,331.0,0.0,Rest
250475.0,292488.59375,649600.1875,556609.3125,289486.21875,308686.46875,285268.90625,286108.25,-0.061279296875,0.939208984375,0.330322265625,-1.0681151151657104,-1.4953612089157104,0.7019042372703552,13.333333969116211,332.0,0.0,Rest
250475.0,292488.59375,649600.1875,556609.3125,289486.21875,308686.46875,285268.90625,286108.25,-0.061279296875,0.939208984375,0.330322265625,-1.0681151151657104,-1.4953612089157104,0.7019042372703552,13.333333969116211,333.0,0.0,Rest
250475.0,292488.59375,649600.1875,556609.3125,289486.21875,308686.46875,285268.90625,286108.25,-0.061279296875,0.939208984375,0.330322265625,-1.0681151151657104,-1.4953612089157104,0.7019042372703552,13.333333969116211,334.0,0.0,Rest
250475.0,292488.59375,649600.1875,556609.3125,289486.21875,308686.46875,285268.90625,286108.25,-0.061279296875,0.939208984375,0.330322265625,-1.0681151151657104,-1.4953612089157104,0.7019042372703552,13.333333969116211,335.0,0.0,Rest
250475.0,292488.59375,649600.1875,556609.3125,289486.21875,308686.46875,285268.90625,286108.25,-0.061279296875,0.939208984375,0.330322265625,-1.0681151151657104,-1.4953612089157104,0.7019042372703552,13.333333969116211,336.0,0.0,Rest
250195.609375,292160.1875,638739.125,552946.3125,289033.09375,308424.3125,285051.625,285931.40625,-0.06201171875,0.94677734375,0.331787109375,-0.3662109076976776,-1.5563963651657104,-0.4882812201976776,13.333333969116211,337.0,1.0,Rest
250009.1875,291969.75,637250.125,552609.1875,288537.6875,308267.21875,284840.0,285806.0625,-0.061767578125,0.94482421875,0.32958984375,-0.4882812201976776,-1.5563963651657104,-0.4272460639476776,13.333333969116211,338.0,1.0,Rest
250131.59375,292092.0,636709.0625,552615.25,288732.53125,308376.5625,284912.15625,285848.4375,-0.059326171875,0.943603515625,0.328125,-0.4882812201976776,-1.5869139432907104,-0.3051757514476776,13.333333969116211,339.0,1.0,Rest
250407.3125,292376.375,637488.4375,552855.75,289357.90625,308611.25,285179.46875,286010.25,-0.057861328125,0.943603515625,0.32763671875,-0.7019042372703552,-1.5258787870407104,-0.2136230319738388,13.333333969116211,340.0,1.0,Rest
250447.109375,292416.1875,638126.9375,552865.0,289537.34375,308627.8125,285251.90625,286051.65625,-0.06005859375,0.94140625,0.3271484375,-0.6103515028953552,-1.4648436307907104,-0.03051757626235485,13.333333969116211,341.0,1.0,Rest
250204.453125,292155.375,637365.3125,552525.875,289023.8125,308409.65625,285030.34375,285912.625,-0.060791015625,0.939697265625,0.328125,-0.5798339247703552,-1.4038084745407104,0.0610351525247097,13.333333969116211,342.0,1.0,Rest
250012.140625,291955.8125,635869.3125,552179.9375,288522.5,308254.34375,284808.71875,285781.71875,-0.061279296875,0.9375,0.32666015625,-0.4577636420726776,-1.4038084745407104,0.0915527269244194,13.333333969116211,343.0,1.0,Rest
250141.609375,292091.8125,635335.75,552194.25,288735.75,308378.09375,284887.5625,285851.5625,-0.06103515625,0.93505859375,0.32763671875,-0.2441406100988388,-1.3427733182907104,0.2136230319738388,13.333333969116211,344.0,1.0,Rest
250412.234375,292372.375,636128.375,552437.4375,289363.90625,308599.5625,285130.125,286009.1875,-0.0615234375,0.935546875,0.331298828125,-0.2441406100988388,-1.3427733182907104,0.2136230319738388,13.333333969116211,345.0,1.0,Rest
250456.765625,292417.5,636776.125,552455.875,289541.84375,308616.8125,285189.125,286042.53125,-0.062744140625,0.938720703125,0.32958984375,-0.1220703050494194,-1.2512205839157104,0.3356933295726776,13.333333969116211,346.0,1.0,Rest
250214.734375,292170.125,636014.8125,552102.625,289018.875,308398.375,284954.28125,285895.1875,-0.063720703125,0.94091796875,0.330322265625,0.03051757626235485,-1.1596678495407104,0.2746581733226776,13.333333969116211,347.0,1.0,Rest
250025.28125,291969.5,634532.375,551765.25,288522.84375,308242.5625,284727.625,285764.03125,-0.064453125,0.93994140625,0.3310546875,0.0915527269244194,-1.2512205839157104,0.3051757514476776,13.333333969116211,348.0,1.0,Rest
250025.28125,291969.5,634532.375,551765.25,288522.84375,308242.5625,284727.625,285764.03125,-0.064453125,0.93994140625,0.3310546875,0.0915527269244194,-1.2512205839157104,0.3051757514476776,13.333333969116211,349.0,0.0,Rest
250025.28125,291969.5,634532.375,551765.25,288522.84375,308242.5625,284727.625,285764.03125,-0.064453125,0.93994140625,0.3310546875,0.0915527269244194,-1.2512205839157104,0.3051757514476776,13.333333969116211,350.0,0.0,Rest
250025.28125,291969.5,634532.375,551765.25,288522.84375,308242.5625,284727.625,285764.03125,-0.064453125,0.93994140625,0.3310546875,0.0915527269244194,-1.2512205839157104,0.3051757514476776,13.333333969116211,351.0,0.0,Rest
250025.28125,291969.5,634532.375,551765.25,288522.84375,308242.5625,284727.625,285764.03125,-0.064453125,0.93994140625,0.3310546875,0.0915527269244194,-1.2512205839157104,0.3051757514476776,13.333333969116211,352.0,0.0,Rest
250025.28125,291969.5,634532.375,551765.25,288522.84375,308242.5625,284727.625,285764.03125,-0.064453125,0.93994140625,0.3310546875,0.0915527269244194,-1.2512205839157104,0.3051757514476776,13.333333969116211,353.0,0.0,Rest
250131.671875,292050.21875,632667.4375,551352.5625,288690.3125,308300.5625,284727.1875,285801.5,-0.061767578125,0.93994140625,0.33056640625,0.1831054538488388,-1.4343260526657104,0.1525878757238388,13.333333969116211,354.0,1.0,Rest
250401.0625,292333.03125,633468.6875,551586.8125,289319.84375,308541.34375,285003.0,285975.90625,-0.06298828125,0.9404296875,0.330322265625,0.1220703050494194,-1.4953612089157104,0.1525878757238388,13.333333969116211,355.0,1.0,Rest
250442.90625,292379.78125,634121.375,551597.0625,289500.96875,308572.28125,285087.3125,286023.5625,-0.060791015625,0.94091796875,0.326904296875,0.1831054538488388,-1.4648436307907104,0.1220703050494194,13.333333969116211,356.0,1.0,Rest
250200.609375,292120.59375,633375.3125,551265.0625,288994.125,308370.75,284875.6875,285895.90625,-0.0625,0.938232421875,0.32568359375,0.1831054538488388,-1.4648436307907104,0.1220703050494194,13.333333969116211,357.0,1.0,Rest
250003.46875,291918.1875,631901.75,550924.5,288494.59375,308206.875,284656.90625,285767.875,-0.06201171875,0.93603515625,0.326904296875,0.2136230319738388,-1.4038084745407104,0.0,13.333333969116211,358.0,1.0,Rest
250125.78125,292062.21875,631384.5,550937.8125,288695.40625,308321.84375,284736.5625,285821.6875,-0.059814453125,0.9365234375,0.329345703125,0.2136230319738388,-1.4648436307907104,-0.0610351525247097,13.333333969116211,359.0,1.0,Rest
250394.171875,292346.4375,632183.25,551179.375,289324.84375,308569.6875,285018.28125,285996.21875,-0.05908203125,0.938232421875,0.3291015625,0.1525878757238388,-1.5258787870407104,-0.1831054538488388,13.333333969116211,360.0,1.0,Rest
250428.421875,292354.3125,632845.25,551190.5625,289501.59375,308597.5,285102.875,286034.75,-0.061279296875,0.938232421875,0.328857421875,0.2136230319738388,-1.4038084745407104,-0.1831054538488388,13.333333969116211,361.0,1.0,Rest
250184.703125,292114.34375,632103.8125,550851.5,288988.40625,308388.28125,284891.875,285896.71875,-0.05908203125,0.9345703125,0.3271484375,0.3051757514476776,-1.4038084745407104,-0.1831054538488388,13.333333969116211,362.0,1.0,Rest
249992.828125,291915.0625,630631.1875,550521.375,288488.875,308234.9375,284681.9375,285773.25,-0.0615234375,0.937255859375,0.327880859375,0.2136230319738388,-1.4038084745407104,-0.3051757514476776,13.333333969116211,363.0,1.0,Rest
250115.765625,292045.3125,630112.625,550544.125,288691.21875,308356.28125,284767.75,285835.65625,-0.06201171875,0.93798828125,0.329345703125,0.3662109076976776,-1.4343260526657104,-0.2136230319738388,13.333333969116211,364.0,1.0,Rest
250384.078125,292324.8125,630916.3125,550779.125,289313.5625,308580.96875,285025.78125,285993.34375,-0.060302734375,0.93603515625,0.329345703125,0.3967284858226776,-1.4343260526657104,-0.1525878757238388,13.333333969116211,365.0,1.0,Rest
250425.46875,292373.0,631582.625,550791.0625,289493.28125,308601.53125,285104.65625,286031.96875,-0.05908203125,0.93603515625,0.32666015625,0.3967284858226776,-1.3427733182907104,-0.1831054538488388,13.333333969116211,366.0,1.0,Rest
250189.875,292115.59375,630849.5,550459.8125,288981.53125,308384.09375,284883.46875,285886.78125,-0.060302734375,0.936279296875,0.326171875,0.3662109076976776,-1.3122557401657104,-0.1525878757238388,13.333333969116211,367.0,1.0,Rest
249991.578125,291912.28125,629379.1875,550119.3125,288475.46875,308214.125,284650.8125,285738.09375,-0.06103515625,0.939697265625,0.32568359375,0.3967284858226776,-1.2512205839157104,-0.0610351525247097,13.333333969116211,368.0,1.0,Rest
250117.109375,292047.28125,628863.5,550141.625,288681.5625,308330.15625,284728.5,285800.40625,-0.0595703125,0.939453125,0.326416015625,0.3967284858226776,-1.1901854276657104,-0.03051757626235485,13.333333969116211,369.0,1.0,Rest
250384.703125,292313.53125,629670.125,550379.1875,289300.25,308550.375,284982.875,285960.0,-0.058349609375,0.94189453125,0.327880859375,0.3967284858226776,-1.1291502714157104,-0.03051757626235485,13.333333969116211,370.0,1.0,Rest
250424.84375,292350.71875,630346.6875,550396.8125,289475.03125,308564.25,285056.1875,285997.8125,-0.059814453125,0.939697265625,0.326416015625,0.3662109076976776,-1.2207030057907104,-0.03051757626235485,13.333333969116211,371.0,1.0,Rest
250188.71875,292106.125,629618.0,550067.875,288966.84375,308353.875,284849.125,285865.9375,-0.062255859375,0.940185546875,0.32470703125,0.3662109076976776,-1.1291502714157104,-0.0915527269244194,13.333333969116211,372.0,1.0,Rest
250002.84375,291917.71875,628158.5,549741.5625,288475.46875,308200.1875,284636.875,285741.9375,-0.063232421875,0.938720703125,0.328125,0.3356933295726776,-1.0986326932907104,-0.03051757626235485,13.333333969116211,373.0,1.0,Rest
250120.140625,292032.15625,627650.25,549760.5,288676.0,308302.46875,284708.5625,285801.21875,-0.06494140625,0.9384765625,0.329833984375,0.3662109076976776,-1.1901854276657104,0.0,13.333333969116211,374.0,1.0,Rest
250378.359375,292283.0625,628461.4375,549991.625,289286.40625,308506.65625,284953.5625,285954.90625,-0.06591796875,0.93896484375,0.328857421875,0.3662109076976776,-1.3122557401657104,-0.0610351525247097,13.333333969116211,375.0,1.0,Rest
250424.578125,292329.625,629133.3125,550014.3125,289465.21875,308529.90625,285032.59375,285996.5,-0.064208984375,0.941162109375,0.326904296875,0.3051757514476776,-1.3427733182907104,-0.1525878757238388,13.333333969116211,376.0,1.0,Rest
250188.546875,292095.5625,628402.625,549686.625,288956.5625,308325.25,284835.71875,285871.5,-0.064208984375,0.94140625,0.330322265625,0.2746581733226776,-1.3427733182907104,-0.1220703050494194,13.333333969116211,377.0,1.0,Rest
249991.3125,291877.84375,626954.125,549352.375,288448.65625,308147.6875,284609.4375,285730.6875,-0.062255859375,0.94287109375,0.328369140625,0.3356933295726776,-1.3427733182907104,-0.1525878757238388,13.333333969116211,378.0,1.0,Rest
250111.390625,292000.0,626456.3125,549372.0,288647.21875,308260.25,284686.21875,285786.46875,-0.062744140625,0.944580078125,0.328857421875,0.2441406100988388,-1.4038084745407104,-0.2441406100988388,13.333333969116211,379.0,1.0,Rest
250376.46875,292289.03125,627274.9375,549611.625,289272.09375,308502.53125,284950.875,285954.71875,-0.060791015625,0.943359375,0.32763671875,0.1525878757238388,-1.3427733182907104,-0.0610351525247097,13.333333969116211,380.0,1.0,Rest
250414.296875,292318.625,627957.4375,549626.375,289449.65625,308528.03125,285020.875,285988.71875,-0.06298828125,0.9423828125,0.32861328125,-0.0610351525247097,-1.4953612089157104,0.03051757626235485,13.333333969116211,381.0,1.0,Rest
250174.5,292070.78125,627235.9375,549300.3125,288937.96875,308326.78125,284808.90625,285850.75,-0.0615234375,0.942626953125,0.329345703125,-0.1220703050494194,-1.5258787870407104,0.0,13.333333969116211,382.0,1.0,Rest
249985.140625,291884.84375,625791.125,548979.5,288445.625,308180.40625,284596.8125,285724.875,-0.064697265625,0.94384765625,0.3310546875,-0.1831054538488388,-1.5258787870407104,-0.03051757626235485,13.333333969116211,383.0,1.0,Rest
250111.46875,292014.03125,625302.0,548991.5625,288651.5,308304.25,284678.1875,285784.40625,-0.064208984375,0.942138671875,0.33251953125,-0.1831054538488388,-1.4648436307907104,0.03051757626235485,13.333333969116211,384.0,1.0,Rest
250381.65625,292294.84375,626126.5625,549226.5625,289275.03125,308541.78125,284944.625,285950.4375,-0.063720703125,0.93994140625,0.330078125,-0.3356933295726776,-1.4648436307907104,0.1220703050494194,13.333333969116211,385.0,1.0,Rest
250417.0625,292335.25,626803.375,549244.1875,289451.53125,308567.09375,285024.1875,285992.1875,-0.06103515625,0.93896484375,0.32763671875,-0.2746581733226776,-1.5258787870407104,0.03051757626235485,13.333333969116211,386.0,1.0,Rest
250183.359375,292099.125,626095.0,548922.6875,288946.75,308365.21875,284823.46875,285864.0625,-0.059326171875,0.93701171875,0.329345703125,-0.3051757514476776,-1.4038084745407104,0.0,13.333333969116211,387.0,1.0,Rest
250001.765625,291903.4375,624657.0625,548596.9375,288455.96875,308220.28125,284614.6875,285741.6875,-0.060546875,0.937255859375,0.32958984375,-0.2441406100988388,-1.4343260526657104,-0.0610351525247097,13.333333969116211,388.0,1.0,Rest
250112.09375,292008.46875,624155.9375,548607.125,288643.65625,308318.09375,284669.78125,285779.59375,-0.06103515625,0.93701171875,0.327880859375,-0.0610351525247097,-1.4648436307907104,-0.1220703050494194,13.333333969116211,389.0,1.0,Rest
250375.21875,292292.78125,624978.3125,548843.375,289262.4375,308537.5,284920.90625,285934.625,-0.059814453125,0.93603515625,0.330078125,-0.03051757626235485,-1.4343260526657104,-0.1220703050494194,13.333333969116211,390.0,1.0,Rest
250421.265625,292328.1875,625662.125,548868.1875,289444.65625,308564.59375,285006.03125,285979.78125,-0.05810546875,0.936279296875,0.330810546875,-0.0915527269244194,-1.3732908964157104,-0.1220703050494194,13.333333969116211,391.0,1.0,Rest
250182.28125,292068.375,624943.5625,548541.6875,288930.5625,308343.03125,284790.5625,285840.375,-0.058837890625,0.934326171875,0.330322265625,0.0,-1.2817381620407104,-0.0915527269244194,13.333333969116211,392.0,1.0,Rest
249984.609375,291858.1875,623494.25,548210.375,288427.46875,308169.5,284560.15625,285704.46875,-0.06103515625,0.936279296875,0.326904296875,0.0,-1.3122557401657104,-0.03051757626235485,13.333333969116211,393.0,1.0,Rest
250116.296875,291994.625,623012.0,548245.0625,288634.875,308283.84375,284642.3125,285774.9375,-0.061767578125,0.936767578125,0.3291015625,0.03051757626235485,-1.3427733182907104,-0.1525878757238388,13.333333969116211,394.0,1.0,Rest
250382.203125,292267.84375,623843.8125,548484.8125,289248.40625,308506.46875,284896.59375,285933.4375,-0.064208984375,0.935791015625,0.32958984375,0.0915527269244194,-1.3427733182907104,-0.1525878757238388,13.333333969116211,395.0,1.0,Rest
250413.21875,292286.96875,624525.5,548501.8125,289411.03125,308518.09375,284962.65625,285959.65625,-0.06396484375,0.9365234375,0.330810546875,0.0610351525247097,-1.3427733182907104,-0.1525878757238388,13.333333969116211,396.0,1.0,Rest
250166.546875,292027.4375,623813.0,548170.125,288890.6875,308296.28125,284737.625,285808.90625,-0.063720703125,0.9404296875,0.3310546875,0.1525878757238388,-1.3427733182907104,-0.1525878757238388,13.333333969116211,397.0,1.0,Rest
249980.671875,291836.28125,622376.8125,547846.5625,288394.28125,308137.0625,284526.1875,285689.1875,-0.0615234375,0.940673828125,0.32958984375,0.1525878757238388,-1.2817381620407104,-0.1525878757238388,13.333333969116211,398.0,1.0,Rest
250104.3125,291965.46875,621886.0625,547873.1875,288594.03125,308242.46875,284599.9375,285748.8125,-0.06103515625,0.938720703125,0.33056640625,0.1525878757238388,-1.2512205839157104,-0.1220703050494194,13.333333969116211,399.0,1.0,Rest
250363.78125,292239.59375,622714.1875,548109.5625,289213.34375,308456.15625,284854.40625,285906.375,-0.060546875,0.939697265625,0.329833984375,0.1220703050494194,-1.2207030057907104,-0.1220703050494194,13.333333969116211,400.0,1.0,Rest
250409.640625,292295.03125,623408.75,548133.3125,289397.4375,308482.0625,284936.84375,285952.40625,-0.06005859375,0.94140625,0.330322265625,0.0915527269244194,-1.2512205839157104,-0.1220703050494194,13.333333969116211,401.0,1.0,Rest
250171.828125,292022.6875,622708.8125,547808.0,288887.46875,308270.90625,284729.84375,285813.03125,-0.0615234375,0.9404296875,0.332763671875,0.0,-1.3122557401657104,-0.0915527269244194,13.333333969116211,402.0,1.0,Rest
249983.53125,291836.8125,621281.5,547481.5,288389.28125,308114.53125,284512.96875,285679.96875,-0.06103515625,0.943603515625,0.33203125,0.03051757626235485,-1.2817381620407104,-0.1831054538488388,13.333333969116211,403.0,1.0,Rest
250109.234375,291957.875,620809.1875,547505.8125,288589.5625,308228.875,284590.125,285734.875,-0.06005859375,0.94287109375,0.331298828125,-0.0610351525247097,-1.2512205839157104,-0.0915527269244194,13.333333969116211,404.0,1.0,Rest
250370.75,292223.21875,621643.4375,547742.875,289204.40625,308446.9375,284843.59375,285891.4375,-0.061767578125,0.941162109375,0.333740234375,-0.0915527269244194,-1.2207030057907104,-0.0610351525247097,13.333333969116211,405.0,1.0,Rest
250407.234375,292266.5,622335.4375,547763.3125,289379.03125,308468.9375,284920.75,285931.9375,-0.0615234375,0.939697265625,0.330810546875,-0.1831054538488388,-1.2512205839157104,-0.0915527269244194,13.333333969116211,406.0,1.0,Rest
250167.53125,292029.3125,621634.9375,547442.875,288870.65625,308263.65625,284721.4375,285802.84375,-0.06103515625,0.938720703125,0.332275390625,-0.3356933295726776,-1.2207030057907104,-0.1220703050494194,13.333333969116211,407.0,1.0,Rest
249981.828125,291838.78125,620214.0625,547130.125,288387.40625,308120.6875,284521.90625,285685.15625,-0.061767578125,0.936767578125,0.33203125,-0.4272460639476776,-1.1901854276657104,-0.1525878757238388,13.333333969116211,408.0,1.0,Rest
250104.671875,291960.375,619741.1875,547160.6875,288592.875,308246.03125,284606.5625,285745.34375,-0.058837890625,0.9365234375,0.327880859375,-0.4272460639476776,-1.1291502714157104,-0.1525878757238388,13.333333969116211,409.0,1.0,Rest
250362.609375,292230.21875,620587.125,547398.25,289209.15625,308473.03125,284867.8125,285905.46875,-0.05859375,0.937744140625,0.326904296875,-0.4272460639476776,-1.0986326932907104,-0.1220703050494194,13.333333969116211,410.0,1.0,Rest
250398.921875,292273.3125,621290.25,547418.8125,289383.03125,308496.03125,284946.5,285943.09375,-0.059326171875,0.93701171875,0.328857421875,-0.5187987685203552,-1.0986326932907104,-0.1525878757238388,13.333333969116211,411.0,1.0,Rest
250167.078125,292036.8125,620605.6875,547101.0625,288879.15625,308298.625,284740.9375,285811.84375,-0.06005859375,0.939208984375,0.3310546875,-0.5493163466453552,-1.0681151151657104,-0.0915527269244194,13.333333969116211,412.0,1.0,Rest
249981.75,291852.375,619187.3125,546784.5625,288386.5,308155.46875,284526.71875,285688.03125,-0.060302734375,0.939697265625,0.330810546875,-0.5493163466453552,-1.0375975370407104,-0.03051757626235485,13.333333969116211,413.0,1.0,Rest
250113.4375,291985.21875,618723.3125,546824.75,288604.75,308292.625,284622.3125,285768.9375,-0.059814453125,0.939453125,0.33056640625,-0.6103515028953552,-0.9155272841453552,0.03051757626235485,13.333333969116211,414.0,1.0,Rest
250380.3125,292250.78125,619573.125,547071.375,289231.40625,308525.0,284888.375,285936.3125,-0.059814453125,0.94091796875,0.32958984375,-0.6713866591453552,-0.8544921278953552,-0.03051757626235485,13.333333969116211,415.0,1.0,Rest
250416.34375,292284.03125,620281.4375,547091.9375,289398.6875,308543.5,284947.84375,285950.625,-0.05908203125,0.94091796875,0.33056640625,-0.6103515028953552,-0.7934569716453552,-0.0610351525247097,13.333333969116211,416.0,1.0,Rest
250416.34375,292284.03125,620281.4375,547091.9375,289398.6875,308543.5,284947.84375,285950.625,-0.05908203125,0.94091796875,0.33056640625,-0.6103515028953552,-0.7934569716453552,-0.0610351525247097,13.333333969116211,417.0,0.0,Rest
250416.34375,292284.03125,620281.4375,547091.9375,289398.6875,308543.5,284947.84375,285950.625,-0.05908203125,0.94091796875,0.33056640625,-0.6103515028953552,-0.7934569716453552,-0.0610351525247097,13.333333969116211,418.0,0.0,Rest
250416.34375,292284.03125,620281.4375,547091.9375,289398.6875,308543.5,284947.84375,285950.625,-0.05908203125,0.94091796875,0.33056640625,-0.6103515028953552,-0.7934569716453552,-0.0610351525247097,13.333333969116211,419.0,0.0,Rest
250416.34375,292284.03125,620281.4375,547091.9375,289398.6875,308543.5,284947.84375,285950.625,-0.05908203125,0.94091796875,0.33056640625,-0.6103515028953552,-0.7934569716453552,-0.0610351525247097,13.333333969116211,420.0,0.0,Rest
250416.34375,292284.03125,620281.4375,547091.9375,289398.6875,308543.5,284947.84375,285950.625,-0.05908203125,0.94091796875,0.33056640625,-0.6103515028953552,-0.7934569716453552,-0.0610351525247097,13.333333969116211,421.0,0.0,Rest
250416.34375,292284.03125,620281.4375,547091.9375,289398.6875,308543.5,284947.84375,285950.625,-0.05908203125,0.94091796875,0.33056640625,-0.6103515028953552,-0.7934569716453552,-0.0610351525247097,13.333333969116211,422.0,0.0,Rest
250416.34375,292284.03125,620281.4375,547091.9375,289398.6875,308543.5,284947.84375,285950.625,-0.05908203125,0.94091796875,0.33056640625,-0.6103515028953552,-0.7934569716453552,-0.0610351525247097,13.333333969116211,423.0,0.0,Rest
250416.34375,292284.03125,620281.4375,547091.9375,289398.6875,308543.5,284947.84375,285950.625,-0.05908203125,0.94091796875,0.33056640625,-0.6103515028953552,-0.7934569716453552,-0.0610351525247097,13.333333969116211,424.0,0.0,Rest
250416.34375,292284.03125,620281.4375,547091.9375,289398.6875,308543.5,284947.84375,285950.625,-0.05908203125,0.94091796875,0.33056640625,-0.6103515028953552,-0.7934569716453552,-0.0610351525247097,13.333333969116211,425.0,0.0,Rest
250416.34375,292284.03125,620281.4375,547091.9375,289398.6875,308543.5,284947.84375,285950.625,-0.05908203125,0.94091796875,0.33056640625,-0.6103515028953552,-0.7934569716453552,-0.0610351525247097,13.333333969116211,426.0,0.0,Rest
250416.34375,292284.03125,620281.4375,547091.9375,289398.6875,308543.5,284947.84375,285950.625,-0.05908203125,0.94091796875,0.33056640625,-0.6103515028953552,-0.7934569716453552,-0.0610351525247097,13.333333969116211,427.0,0.0,Rest
250416.34375,292284.03125,620281.4375,547091.9375,289398.6875,308543.5,284947.84375,285950.625,-0.05908203125,0.94091796875,0.33056640625,-0.6103515028953552,-0.7934569716453552,-0.0610351525247097,13.333333969116211,428.0,0.0,Rest
250416.34375,292284.03125,620281.4375,547091.9375,289398.6875,308543.5,284947.84375,285950.625,-0.05908203125,0.94091796875,0.33056640625,-0.6103515028953552,-0.7934569716453552,-0.0610351525247097,13.333333969116211,429.0,0.0,Rest
250416.34375,292284.03125,620281.4375,547091.9375,289398.6875,308543.5,284947.84375,285950.625,-0.05908203125,0.94091796875,0.33056640625,-0.6103515028953552,-0.7934569716453552,-0.0610351525247097,13.333333969116211,430.0,0.0,Rest
250416.34375,292284.03125,620281.4375,547091.9375,289398.6875,308543.5,284947.84375,285950.625,-0.05908203125,0.94091796875,0.33056640625,-0.6103515028953552,-0.7934569716453552,-0.0610351525247097,13.333333969116211,431.0,0.0,Rest
250416.34375,292284.03125,620281.4375,547091.9375,289398.6875,308543.5,284947.84375,285950.625,-0.05908203125,0.94091796875,0.33056640625,-0.6103515028953552,-0.7934569716453552,-0.0610351525247097,13.333333969116211,432.0,0.0,Rest
250416.34375,292284.03125,620281.4375,547091.9375,289398.6875,308543.5,284947.84375,285950.625,-0.05908203125,0.94091796875,0.33056640625,-0.6103515028953552,-0.7934569716453552,-0.0610351525247097,13.333333969116211,433.0,0.0,Rest
250079.734375,291908.625,614679.4375,545446.4375,288520.90625,308219.5625,284563.03125,285719.875,-0.064697265625,0.93798828125,0.33349609375,-0.1831054538488388,-0.9155272841453552,-0.2136230319738388,13.333333969116211,434.0,1.0,Rest
250345.625,292187.03125,615535.875,545693.75,289145.84375,308455.0625,284841.09375,285885.8125,-0.063720703125,0.93408203125,0.332275390625,-0.1831054538488388,-1.0681151151657104,-0.3356933295726776,13.333333969116211,435.0,1.0,Rest
250398.203125,292248.0,616265.1875,545733.125,289338.34375,308499.5,284959.90625,285945.15625,-0.060791015625,0.93212890625,0.328857421875,-0.0915527269244194,-1.1901854276657104,-0.1525878757238388,13.333333969116211,436.0,1.0,Rest
250161.71875,292024.3125,615587.125,545420.25,288834.25,308305.75,284773.40625,285812.9375,-0.056640625,0.93359375,0.330078125,-0.03051757626235485,-1.0681151151657104,-0.1220703050494194,13.333333969116211,437.0,1.0,Rest
249961.890625,291809.5625,614180.0,545097.0,288327.3125,308139.375,284551.75,285662.28125,-0.055908203125,0.93408203125,0.33154296875,0.2136230319738388,-1.0681151151657104,-0.03051757626235485,13.333333969116211,438.0,1.0,Rest
250087.6875,291923.71875,613728.125,545128.3125,288525.375,308245.5,284625.59375,285705.03125,-0.055908203125,0.936279296875,0.328125,0.3051757514476776,-0.9765624403953552,0.03051757626235485,13.333333969116211,439.0,1.0,Rest
250360.828125,292206.25,614592.8125,545386.375,289159.53125,308483.875,284905.28125,285878.28125,-0.056884765625,0.93701171875,0.32763671875,0.4882812201976776,-1.0070799589157104,0.0610351525247097,13.333333969116211,440.0,1.0,Rest
250417.421875,292252.03125,615323.25,545430.9375,289351.46875,308517.46875,285009.15625,285932.5625,-0.058837890625,0.937744140625,0.326416015625,0.4272460639476776,-1.0375975370407104,0.0610351525247097,13.333333969116211,441.0,1.0,Rest
250174.859375,291996.0625,614642.6875,545106.9375,288835.4375,308293.96875,284797.1875,285791.28125,-0.063232421875,0.940185546875,0.3291015625,0.3967284858226776,-1.0375975370407104,0.1220703050494194,13.333333969116211,442.0,1.0,Rest
249977.359375,291794.0,613230.625,544780.0625,288329.125,308116.5625,284562.84375,285647.71875,-0.064453125,0.942138671875,0.33154296875,0.2441406100988388,-1.0070799589157104,0.0,13.333333969116211,443.0,1.0,Rest
250102.265625,291928.28125,612781.75,544815.8125,288534.03125,308232.28125,284642.0625,285707.53125,-0.064208984375,0.940673828125,0.3310546875,0.0,-0.9460448622703552,-0.0610351525247097,13.333333969116211,444.0,1.0,Rest
250366.640625,292199.90625,613651.4375,545070.5,289157.03125,308458.46875,284907.6875,285871.125,-0.066162109375,0.939697265625,0.330078125,-0.0610351525247097,-1.0070799589157104,-0.3051757514476776,13.333333969116211,445.0,1.0,Rest
250366.640625,292199.90625,613651.4375,545070.5,289157.03125,308458.46875,284907.6875,285871.125,-0.066162109375,0.939697265625,0.330078125,-0.0610351525247097,-1.0070799589157104,-0.3051757514476776,13.333333969116211,446.0,0.0,Rest
250366.640625,292199.90625,613651.4375,545070.5,289157.03125,308458.46875,284907.6875,285871.125,-0.066162109375,0.939697265625,0.330078125,-0.0610351525247097,-1.0070799589157104,-0.3051757514476776,13.333333969116211,447.0,0.0,Rest
250366.640625,292199.90625,613651.4375,545070.5,289157.03125,308458.46875,284907.6875,285871.125,-0.066162109375,0.939697265625,0.330078125,-0.0610351525247097,-1.0070799589157104,-0.3051757514476776,13.333333969116211,448.0,0.0,Rest
250366.640625,292199.90625,613651.4375,545070.5,289157.03125,308458.46875,284907.6875,285871.125,-0.066162109375,0.939697265625,0.330078125,-0.0610351525247097,-1.0070799589157104,-0.3051757514476776,13.333333969116211,449.0,0.0,Rest
250366.640625,292199.90625,613651.4375,545070.5,289157.03125,308458.46875,284907.6875,285871.125,-0.066162109375,0.939697265625,0.330078125,-0.0610351525247097,-1.0070799589157104,-0.3051757514476776,13.333333969116211,450.0,0.0,Rest
250366.640625,292199.90625,613651.4375,545070.5,289157.03125,308458.46875,284907.6875,285871.125,-0.066162109375,0.939697265625,0.330078125,-0.0610351525247097,-1.0070799589157104,-0.3051757514476776,13.333333969116211,451.0,0.0,Rest
250366.640625,292199.90625,613651.4375,545070.5,289157.03125,308458.46875,284907.6875,285871.125,-0.066162109375,0.939697265625,0.330078125,-0.0610351525247097,-1.0070799589157104,-0.3051757514476776,13.333333969116211,452.0,0.0,Rest
250366.640625,292199.90625,613651.4375,545070.5,289157.03125,308458.46875,284907.6875,285871.125,-0.066162109375,0.939697265625,0.330078125,-0.0610351525247097,-1.0070799589157104,-0.3051757514476776,13.333333969116211,453.0,0.0,Rest
250366.640625,292199.90625,613651.4375,545070.5,289157.03125,308458.46875,284907.6875,285871.125,-0.066162109375,0.939697265625,0.330078125,-0.0610351525247097,-1.0070799589157104,-0.3051757514476776,13.333333969116211,454.0,0.0,Rest
250366.640625,292199.90625,613651.4375,545070.5,289157.03125,308458.46875,284907.6875,285871.125,-0.066162109375,0.939697265625,0.330078125,-0.0610351525247097,-1.0070799589157104,-0.3051757514476776,13.333333969116211,455.0,0.0,Rest
250366.640625,292199.90625,613651.4375,545070.5,289157.03125,308458.46875,284907.6875,285871.125,-0.066162109375,0.939697265625,0.330078125,-0.0610351525247097,-1.0070799589157104,-0.3051757514476776,13.333333969116211,456.0,0.0,Rest
250366.640625,292199.90625,613651.4375,545070.5,289157.03125,308458.46875,284907.6875,285871.125,-0.066162109375,0.939697265625,0.330078125,-0.0610351525247097,-1.0070799589157104,-0.3051757514476776,13.333333969116211,457.0,0.0,Rest
250366.640625,292199.90625,613651.4375,545070.5,289157.03125,308458.46875,284907.6875,285871.125,-0.066162109375,0.939697265625,0.330078125,-0.0610351525247097,-1.0070799589157104,-0.3051757514476776,13.333333969116211,458.0,0.0,Rest
250366.640625,292199.90625,613651.4375,545070.5,289157.03125,308458.46875,284907.6875,285871.125,-0.066162109375,0.939697265625,0.330078125,-0.0610351525247097,-1.0070799589157104,-0.3051757514476776,13.333333969116211,459.0,0.0,Rest
250366.640625,292199.90625,613651.4375,545070.5,289157.03125,308458.46875,284907.6875,285871.125,-0.066162109375,0.939697265625,0.330078125,-0.0610351525247097,-1.0070799589157104,-0.3051757514476776,13.333333969116211,460.0,0.0,Rest
250366.640625,292199.90625,613651.4375,545070.5,289157.03125,308458.46875,284907.6875,285871.125,-0.066162109375,0.939697265625,0.330078125,-0.0610351525247097,-1.0070799589157104,-0.3051757514476776,13.333333969116211,461.0,0.0,Rest
250366.640625,292199.90625,613651.4375,545070.5,289157.03125,308458.46875,284907.6875,285871.125,-0.066162109375,0.939697265625,0.330078125,-0.0610351525247097,-1.0070799589157104,-0.3051757514476776,13.333333969116211,462.0,0.0,Rest
250366.640625,292199.90625,613651.4375,545070.5,289157.03125,308458.46875,284907.6875,285871.125,-0.066162109375,0.939697265625,0.330078125,-0.0610351525247097,-1.0070799589157104,-0.3051757514476776,13.333333969116211,463.0,0.0,Rest
250366.640625,292199.90625,613651.4375,545070.5,289157.03125,308458.46875,284907.6875,285871.125,-0.066162109375,0.939697265625,0.330078125,-0.0610351525247097,-1.0070799589157104,-0.3051757514476776,13.333333969116211,464.0,0.0,Rest
250366.640625,292199.90625,613651.4375,545070.5,289157.03125,308458.46875,284907.6875,285871.125,-0.066162109375,0.939697265625,0.330078125,-0.0610351525247097,-1.0070799589157104,-0.3051757514476776,13.333333969116211,465.0,0.0,Rest
250366.640625,292199.90625,613651.4375,545070.5,289157.03125,308458.46875,284907.6875,285871.125,-0.066162109375,0.939697265625,0.330078125,-0.0610351525247097,-1.0070799589157104,-0.3051757514476776,13.333333969116211,466.0,0.0,Rest
250143.125,291950.375,610082.0625,543521.5,288792.96875,308257.40625,284949.8125,285734.78125,-0.063720703125,0.927978515625,0.333740234375,-1.8005369901657104,0.5187987685203552,-1.1901854276657104,13.333333969116211,467.0,1.0,Rest
249945.984375,291746.6875,608692.0625,543201.3125,288289.3125,308088.25,284731.5625,285595.9375,-0.065673828125,0.92724609375,0.333251953125,-1.6479490995407104,0.5493163466453552,-1.2512205839157104,13.333333969116211,468.0,1.0,Rest
250079.015625,291891.53125,608257.4375,543244.3125,288494.6875,308209.5625,284819.0,285659.40625,-0.066650390625,0.926513671875,0.33251953125,-1.3427733182907104,0.5798339247703552,-1.4953612089157104,13.333333969116211,469.0,1.0,Rest
250347.0625,292166.28125,609137.75,543505.375,289119.46875,308440.15625,285091.78125,285838.59375,-0.068115234375,0.92724609375,0.335693359375,-0.9460448622703552,0.5187987685203552,-1.6784666776657104,13.333333969116211,470.0,1.0,Rest
250385.859375,292197.5625,609877.6875,543536.8125,289295.0625,308448.09375,285166.78125,285880.34375,-0.067626953125,0.927978515625,0.3359375,-0.7629393935203552,0.4882812201976776,-1.6174315214157104,13.333333969116211,471.0,1.0,Rest
250143.390625,291942.9375,609210.125,543229.25,288781.25,308224.03125,284955.96875,285748.90625,-0.068603515625,0.927978515625,0.33349609375,-0.5187987685203552,0.3662109076976776,-1.8310545682907104,13.333333969116211,472.0,1.0,Rest
249957.25,291762.78125,607827.1875,542933.125,288293.34375,308070.09375,284755.875,285640.03125,-0.068115234375,0.93017578125,0.336669921875,-0.2746581733226776,0.2136230319738388,-1.7700194120407104,13.333333969116211,473.0,1.0,Rest
250079.109375,291868.375,607386.5,542955.375,288486.5625,308169.9375,284826.875,285698.03125,-0.06884765625,0.933349609375,0.33935546875,-0.2441406100988388,0.1831054538488388,-1.8310545682907104,13.333333969116211,474.0,1.0,Rest
250341.609375,292126.84375,608259.375,543201.4375,289092.46875,308378.0,285068.875,285845.5625,-0.0693359375,0.93408203125,0.341552734375,-0.1831054538488388,0.1831054538488388,-1.8615721464157104,13.333333969116211,475.0,1.0,Rest
250383.265625,292174.78125,608997.875,543236.1875,289268.15625,308396.875,285142.8125,285882.5,-0.069580078125,0.93701171875,0.3388671875,-0.2136230319738388,0.0,-1.7700194120407104,13.333333969116211,476.0,1.0,Rest
250137.3125,291914.25,608330.625,542916.125,288745.65625,308180.40625,284927.625,285740.15625,-0.070556640625,0.93505859375,0.33740234375,-0.1831054538488388,-0.0915527269244194,-1.6784666776657104,13.333333969116211,477.0,1.0,Rest
249947.671875,291723.53125,606948.3125,542608.9375,288249.53125,308033.53125,284730.75,285622.5,-0.07373046875,0.93505859375,0.336669921875,-0.1831054538488388,-0.2136230319738388,-1.6479490995407104,13.333333969116211,478.0,1.0,Rest
249947.671875,291723.53125,606948.3125,542608.9375,288249.53125,308033.53125,284730.75,285622.5,-0.07373046875,0.93505859375,0.336669921875,-0.1831054538488388,-0.2136230319738388,-1.6479490995407104,13.333333969116211,479.0,0.0,Rest
249947.671875,291723.53125,606948.3125,542608.9375,288249.53125,308033.53125,284730.75,285622.5,-0.07373046875,0.93505859375,0.336669921875,-0.1831054538488388,-0.2136230319738388,-1.6479490995407104,13.333333969116211,480.0,0.0,Rest
249947.671875,291723.53125,606948.3125,542608.9375,288249.53125,308033.53125,284730.75,285622.5,-0.07373046875,0.93505859375,0.336669921875,-0.1831054538488388,-0.2136230319738388,-1.6479490995407104,13.333333969116211,481.0,0.0,Rest
249947.671875,291723.53125,606948.3125,542608.9375,288249.53125,308033.53125,284730.75,285622.5,-0.07373046875,0.93505859375,0.336669921875,-0.1831054538488388,-0.2136230319738388,-1.6479490995407104,13.333333969116211,482.0,0.0,Rest
249926.484375,291701.375,606094.3125,542292.625,288235.5,308048.53125,284743.09375,285606.21875,-0.072265625,0.935791015625,0.3359375,0.0610351525247097,-0.8239745497703552,-1.1596678495407104,13.333333969116211,483.0,1.0,Rest
250055.5,291834.5,605657.125,542331.0625,288439.875,308177.03125,284831.6875,285665.0625,-0.073974609375,0.934326171875,0.3369140625,-0.03051757626235485,-0.9765624403953552,-1.0986326932907104,13.333333969116211,484.0,1.0,Rest
250328.28125,292121.59375,606543.5,542584.4375,289065.5625,308414.46875,285103.21875,285824.71875,-0.07373046875,0.93310546875,0.337646484375,0.1525878757238388,-1.1596678495407104,-1.0070799589157104,13.333333969116211,485.0,1.0,Rest
250370.65625,292171.1875,607287.1875,542621.4375,289248.40625,308443.1875,285192.09375,285863.0,-0.072509765625,0.934326171875,0.3388671875,0.1525878757238388,-1.2817381620407104,-0.9155272841453552,13.333333969116211,486.0,1.0,Rest
250127.75,291893.40625,606633.625,542308.4375,288734.5625,308225.5625,284975.71875,285711.8125,-0.0732421875,0.932373046875,0.33642578125,0.1831054538488388,-1.4343260526657104,-0.8544921278953552,13.333333969116211,487.0,1.0,Rest
249945.09375,291715.21875,605256.9375,542001.125,288248.1875,308078.125,284774.1875,285586.8125,-0.072998046875,0.932861328125,0.33544921875,0.3662109076976776,-1.4343260526657104,-0.7324218153953552,13.333333969116211,488.0,1.0,Rest
250072.3125,291851.125,604826.875,542046.75,288461.71875,308196.96875,284862.71875,285650.9375,-0.07275390625,0.93408203125,0.33251953125,0.5187987685203552,-1.6784666776657104,-0.5798339247703552,13.333333969116211,489.0,1.0,Rest
250335.890625,292128.90625,605707.625,542302.875,289088.625,308423.5,285121.375,285814.1875,-0.07177734375,0.935546875,0.3330078125,0.6103515028953552,-1.7700194120407104,-0.5798339247703552,13.333333969116211,490.0,1.0,Rest
250372.09375,292156.90625,606454.5625,542337.375,289264.3125,308435.3125,285185.125,285839.125,-0.071533203125,0.9345703125,0.3349609375,0.5493163466453552,-1.9531248807907104,-0.5493163466453552,13.333333969116211,491.0,1.0,Rest
250128.546875,291903.59375,605802.5,542020.4375,288752.28125,308213.84375,284961.59375,285687.6875,-0.07373046875,0.937744140625,0.3369140625,0.7019042372703552,-2.075195074081421,-0.6713866591453552,13.333333969116211,492.0,1.0,Rest
249944.1875,291717.09375,604432.6875,541711.375,288264.5625,308055.6875,284753.5625,285568.5,-0.07275390625,0.9404296875,0.33349609375,0.6713866591453552,-2.227782964706421,-0.5493163466453552,13.333333969116211,493.0,1.0,Rest
250071.421875,291848.25,604006.8125,541758.75,288474.5625,308174.96875,284846.4375,285644.125,-0.073486328125,0.941650390625,0.33251953125,0.7324218153953552,-2.349853277206421,-0.6713866591453552,13.333333969116211,494.0,1.0,Rest
250343.75,292136.96875,604895.375,542017.125,289102.125,308408.40625,285116.90625,285817.84375,-0.070556640625,0.9423828125,0.332763671875,0.7324218153953552,-2.441406011581421,-0.7324218153953552,13.333333969116211,495.0,1.0,Rest
250385.0625,292176.125,605646.625,542057.5625,289283.8125,308426.625,285195.9375,285862.28125,-0.06884765625,0.946044921875,0.33447265625,0.7019042372703552,-2.532958745956421,-0.8544921278953552,13.333333969116211,496.0,1.0,Rest
250143.484375,291910.125,604995.6875,541749.4375,288769.0,308200.625,284979.21875,285726.65625,-0.067138671875,0.947265625,0.335205078125,0.5798339247703552,-2.471923589706421,-0.9765624403953552,13.333333969116211,497.0,1.0,Rest
249951.4375,291714.6875,603622.5,541441.375,288266.78125,308029.6875,284754.1875,285592.09375,-0.066650390625,0.94775390625,0.337890625,0.5493163466453552,-2.563476324081421,-0.9765624403953552,13.333333969116211,498.0,1.0,Rest
250073.03125,291856.40625,603196.875,541486.4375,288472.0,308145.53125,284834.65625,285662.5625,-0.063232421875,0.94921875,0.33935546875,0.4272460639476776,-2.410888433456421,-0.9155272841453552,13.333333969116211,499.0,1.0,Rest
250338.828125,292105.9375,604082.8125,541745.3125,289087.09375,308372.5625,285102.25,285836.71875,-0.063232421875,0.947265625,0.3388671875,0.1525878757238388,-2.502441167831421,-0.8239745497703552,13.333333969116211,500.0,1.0,Rest
250372.265625,292140.09375,604832.3125,541774.375,289249.46875,308387.75,285168.75,285867.5625,-0.061767578125,0.944091796875,0.3349609375,0.0915527269244194,-2.532958745956421,-0.8850097060203552,13.333333969116211,501.0,1.0,Rest
250126.5,291881.0625,604193.0,541465.75,288727.875,308159.3125,284946.21875,285723.78125,-0.06005859375,0.94140625,0.334716796875,0.0,-2.502441167831421,-0.8850097060203552,13.333333969116211,502.0,1.0,Rest
249935.34375,291685.71875,602823.875,541161.125,288231.9375,308001.78125,284735.75,285601.03125,-0.055908203125,0.935791015625,0.332763671875,-0.1220703050494194,-2.288818120956421,-0.8544921278953552,13.333333969116211,503.0,1.0,Rest
250060.421875,291823.3125,602400.4375,541192.8125,288439.34375,308139.71875,284829.0,285665.6875,-0.0537109375,0.933349609375,0.330078125,0.0,-2.197265386581421,-0.8239745497703552,13.333333969116211,504.0,1.0,Rest
250327.84375,292095.46875,603294.0,541462.1875,289069.21875,308384.4375,285104.84375,285833.3125,-0.05322265625,0.9296875,0.330322265625,0.0,-2.105712652206421,-0.7629393935203552,13.333333969116211,505.0,1.0,Rest
250365.296875,292131.78125,604041.0625,541490.8125,289248.03125,308404.1875,285186.0,285871.03125,-0.05322265625,0.9306640625,0.329345703125,0.1220703050494194,-1.8920897245407104,-0.7019042372703552,13.333333969116211,506.0,1.0,Rest
250126.5,291884.1875,603394.125,541174.9375,288735.03125,308192.21875,284970.375,285722.90625,-0.055419921875,0.927734375,0.328857421875,0.3356933295726776,-1.6174315214157104,-0.5798339247703552,13.333333969116211,507.0,1.0,Rest
249942.9375,291696.34375,602035.875,540880.5625,288249.0,308052.125,284770.53125,285597.28125,-0.0576171875,0.92822265625,0.3310546875,0.5798339247703552,-1.5258787870407104,-0.4577636420726776,13.333333969116211,508.0,1.0,Rest
250069.1875,291827.875,601619.875,540923.0625,288462.0625,308174.875,284857.8125,285655.5625,-0.0595703125,0.92578125,0.330078125,0.7324218153953552,-1.3732908964157104,-0.4882812201976776,13.333333969116211,509.0,1.0,Rest
250340.796875,292108.625,602518.1875,541187.25,289088.8125,308402.3125,285128.625,285822.78125,-0.0625,0.9267578125,0.330810546875,0.8239745497703552,-1.1291502714157104,-0.6103515028953552,13.333333969116211,510.0,1.0,Rest
250397.03125,292173.34375,603287.125,541238.0625,289285.15625,308443.71875,285222.84375,285875.25,-0.06396484375,0.92626953125,0.32861328125,0.9155272841453552,-1.0681151151657104,-0.7019042372703552,13.333333969116211,511.0,1.0,Rest
250158.59375,291925.0625,602645.625,540928.9375,288774.53125,308228.59375,285001.125,285719.9375,-0.066162109375,0.926025390625,0.32763671875,1.0986326932907104,-1.0070799589157104,-0.8239745497703552,13.333333969116211,512.0,1.0,Rest
249959.65625,291708.875,601269.125,540612.4375,288269.21875,308054.96875,284774.5625,285570.90625,-0.070068359375,0.9287109375,0.330322265625,1.2817381620407104,-1.0375975370407104,-0.9765624403953552,13.333333969116211,513.0,1.0,Rest
250084.828125,291831.4375,600843.0,540651.4375,288469.75,308164.40625,284850.71875,285625.71875,-0.0693359375,0.9326171875,0.329833984375,1.4953612089157104,-1.0681151151657104,-0.8850097060203552,13.333333969116211,514.0,1.0,Rest
250357.078125,292120.875,601736.0625,540913.6875,289093.375,308389.4375,285112.53125,285789.5,-0.0673828125,0.937744140625,0.33203125,1.5563963651657104,-1.0375975370407104,-1.0070799589157104,13.333333969116211,515.0,1.0,Rest
250401.421875,292161.46875,602501.0625,540965.1875,289277.375,308416.53125,285201.84375,285842.96875,-0.06689453125,0.942138671875,0.329833984375,1.5258787870407104,-1.0681151151657104,-1.0986326932907104,13.333333969116211,516.0,1.0,Rest
250161.71875,291889.75,601867.0625,540651.8125,288759.96875,308189.09375,284980.03125,285694.90625,-0.066162109375,0.943115234375,0.32958984375,1.5563963651657104,-1.1291502714157104,-1.0375975370407104,13.333333969116211,517.0,1.0,Rest
249975.75,291702.0,600507.1875,540349.6875,288259.8125,308020.28125,284757.125,285555.8125,-0.064208984375,0.946044921875,0.331298828125,1.4648436307907104,-0.9460448622703552,-1.0375975370407104,13.333333969116211,518.0,1.0,Rest
250099.765625,291829.9375,600092.875,540395.8125,288460.8125,308131.40625,284841.78125,285626.34375,-0.064697265625,0.946533203125,0.32958984375,1.3732908964157104,-1.0375975370407104,-1.0375975370407104,13.333333969116211,519.0,1.0,Rest
250365.828125,292101.625,600985.75,540651.5,289080.03125,308352.4375,285107.96875,285801.9375,-0.0615234375,0.9482421875,0.33203125,1.2817381620407104,-0.9155272841453552,-0.9155272841453552,13.333333969116211,520.0,1.0,Rest
250396.328125,292130.0625,601742.3125,540688.5625,289251.875,308362.96875,285184.9375,285849.21875,-0.061767578125,0.950439453125,0.331787109375,1.0986326932907104,-0.8544921278953552,-0.7934569716453552,13.333333969116211,521.0,1.0,Rest
250143.65625,291867.125,601101.125,540374.125,288721.625,308132.75,284948.625,285689.90625,-0.0634765625,0.94677734375,0.333251953125,0.9460448622703552,-0.8239745497703552,-0.6713866591453552,13.333333969116211,522.0,1.0,Rest
249951.53125,291669.1875,599735.4375,540083.0625,288223.6875,307981.65625,284742.375,285565.8125,-0.06396484375,0.9453125,0.332763671875,0.8544921278953552,-0.7629393935203552,-0.5798339247703552,13.333333969116211,523.0,1.0,Rest
250083.3125,291814.46875,599329.3125,540128.4375,288436.84375,308123.5625,284855.03125,285651.71875,-0.063720703125,0.94482421875,0.332275390625,0.7629393935203552,-0.6103515028953552,-0.4272460639476776,13.333333969116211,524.0,1.0,Rest
250336.59375,292076.15625,600217.9375,540361.75,289041.25,308342.0625,285106.4375,285808.90625,-0.064208984375,0.943115234375,0.330810546875,0.6103515028953552,-0.5493163466453552,-0.3051757514476776,13.333333969116211,525.0,1.0,Rest
250361.359375,292102.34375,600979.9375,540392.4375,289208.4375,308350.8125,285162.75,285833.5,-0.064208984375,0.9423828125,0.33154296875,0.4882812201976776,-0.5798339247703552,-0.2746581733226776,13.333333969116211,526.0,1.0,Rest
250113.171875,291848.0,600336.6875,540077.0625,288690.21875,308140.1875,284947.90625,285693.40625,-0.065673828125,0.942138671875,0.330322265625,0.4882812201976776,-0.5493163466453552,-0.1525878757238388,13.333333969116211,527.0,1.0,Rest
249925.953125,291646.90625,598971.6875,539780.875,288198.3125,308005.34375,284750.40625,285572.96875,-0.06640625,0.940185546875,0.328125,0.4272460639476776,-0.5187987685203552,-0.1220703050494194,13.333333969116211,528.0,1.0,Rest
250052.015625,291783.34375,598555.6875,539839.25,288412.875,308143.9375,284849.9375,285642.25,-0.068359375,0.9384765625,0.330810546875,0.3051757514476776,-0.4577636420726776,0.0,13.333333969116211,529.0,1.0,Rest
250319.796875,292075.1875,599454.0625,540096.375,289037.5,308366.75,285108.75,285802.03125,-0.068359375,0.936767578125,0.328125,0.2441406100988388,-0.4272460639476776,-0.03051757626235485,13.333333969116211,530.0,1.0,Rest
250362.4375,292090.28125,600218.1875,540131.0,289215.125,308384.4375,285180.46875,285827.78125,-0.070068359375,0.93603515625,0.3291015625,0.2746581733226776,-0.4272460639476776,-0.03051757626235485,13.333333969116211,531.0,1.0,Rest
250123.625,291842.1875,599587.4375,539824.0,288710.53125,308170.03125,284968.3125,285684.28125,-0.068359375,0.934814453125,0.33056640625,0.2746581733226776,-0.4577636420726776,0.0,13.333333969116211,532.0,1.0,Rest
249941.15625,291659.96875,598226.75,539525.6875,288225.9375,308016.625,284758.28125,285554.71875,-0.0712890625,0.932861328125,0.331298828125,0.2746581733226776,-0.4577636420726776,0.0610351525247097,13.333333969116211,533.0,1.0,Rest
250072.140625,291796.3125,597819.0,539575.9375,288442.46875,308145.28125,284850.90625,285619.375,-0.0693359375,0.9326171875,0.329833984375,0.3356933295726776,-0.5798339247703552,-0.1220703050494194,13.333333969116211,534.0,1.0,Rest
250345.0,292080.4375,598722.875,539842.125,289071.375,308377.65625,285117.875,285775.90625,-0.06884765625,0.9326171875,0.328125,0.4272460639476776,-0.6103515028953552,0.0,13.333333969116211,535.0,1.0,Rest
