EEG 1,EEG 2,EEG 3,EEG 4,EEG 5,EEG 6,EEG 7,EEG 8,Accelerometer X,Accelerometer Y,Accelerometer Z,Gyroscope X,Gyroscope Y,Gyroscope Z,Battery Level,Counter,Validation Indicator,State
644974.625,469943.5625,750000.0625,636716.3125,-321538.1875,637481.0,357068.15625,699513.25,0.021240234375,0.963623046875,0.219482421875,0.0,0.0,0.0,60.0,1.0,1.0,Rest
502517.21875,151062.484375,750000.0625,750000.0625,-331176.0625,750000.0625,486272.78125,413090.03125,0.017578125,0.971435546875,0.2119140625,0.0,0.0,0.0,60.0,2.0,1.0,Rest
482822.1875,94628.6171875,750000.0625,750000.0625,-252572.671875,750000.0625,214762.359375,344252.09375,0.015625,0.97216796875,0.209228515625,0.0,0.0,0.0,60.0,3.0,1.0,Rest
476811.09375,176164.65625,676861.4375,750000.0625,-154628.125,750000.0625,101496.859375,388403.25,0.0146484375,0.97119140625,0.208984375,0.0,0.0,0.0,60.0,4.0,1.0,Rest
371439.53125,445253.375,750000.0625,690628.0625,-31512.921875,650169.625,244618.21875,312526.65625,0.0126953125,0.9697265625,0.20654296875,0.0,0.0,0.0,60.0,5.0,1.0,Rest
291267.28125,566147.25,750000.0625,674711.375,94765.234375,454076.875,402331.5,309555.21875,0.011474609375,0.96875,0.20751953125,0.0,0.0,0.0,60.0,6.0,1.0,Rest
416634.21875,592361.3125,750000.0625,750000.0625,266325.78125,599984.0625,426465.75,303110.59375,0.01318359375,0.96875,0.20556640625,-5.310058116912842,-5.035399913787842,-4.852294445037842,60.0,7.0,1.0,Rest
542283.625,610950.625,750000.0625,750000.0625,342962.6875,750000.0625,653038.3125,359456.3125,0.014404296875,0.966552734375,0.207275390625,-1.7700194120407104,-3.021239995956421,-1.5869139432907104,60.0,8.0,1.0,Rest
565557.4375,748311.25,750000.0625,750000.0625,417435.75,750000.0625,750000.0625,750000.0625,0.011962890625,0.96728515625,0.20654296875,-0.9155272841453552,-2.532958745956421,-0.7324218153953552,60.0,9.0,1.0,Rest
595912.4375,750000.0625,750000.0625,750000.0625,685267.6875,704467.3125,724015.3125,750000.0625,0.01171875,0.9677734375,0.209716796875,-0.6103515028953552,-2.410888433456421,-0.4577636420726776,60.0,10.0,1.0,Rest
704399.25,750000.0625,750000.0625,750000.0625,713108.6875,750000.0625,750000.0625,750000.0625,0.013671875,0.96875,0.206298828125,-0.6408690810203552,-2.288818120956421,-0.2136230319738388,60.0,11.0,1.0,Rest
750000.0625,750000.0625,750000.0625,750000.0625,750000.0625,750000.0625,750000.0625,750000.0625,0.01318359375,0.968994140625,0.206787109375,-0.6103515028953552,-2.197265386581421,-0.0610351525247097,60.0,12.0,1.0,Rest
750000.0625,750000.0625,750000.0625,750000.0625,750000.0625,750000.0625,750000.0625,750000.0625,0.010009765625,0.971435546875,0.20703125,-0.7629393935203552,-2.258300542831421,0.0,60.0,13.0,1.0,Rest
750000.0625,750000.0625,750000.0625,750000.0625,750000.0625,750000.0625,750000.0625,750000.0625,0.0107421875,0.97216796875,0.20947265625,-0.8850097060203552,-2.227782964706421,0.03051757626235485,60.0,14.0,1.0,Rest
750000.0625,750000.0625,750000.0625,750000.0625,750000.0625,750000.0625,750000.0625,750000.0625,0.011962890625,0.97412109375,0.209716796875,-0.9460448622703552,-2.136230230331421,0.1831054538488388,60.0,15.0,1.0,Rest
750000.0625,750000.0625,750000.0625,750000.0625,750000.0625,750000.0625,750000.0625,750000.0625,0.012451171875,0.977783203125,0.21240234375,-1.2817381620407104,-2.166747808456421,0.2136230319738388,60.0,16.0,1.0,Rest
750000.0625,750000.0625,750000.0625,750000.0625,750000.0625,750000.0625,750000.0625,750000.0625,0.01220703125,0.9775390625,0.213134765625,-1.7395018339157104,-2.197265386581421,0.3051757514476776,60.0,17.0,1.0,Rest
750000.0625,750000.0625,750000.0625,750000.0625,750000.0625,750000.0625,750000.0625,695164.4375,0.012939453125,0.975830078125,0.211669921875,-1.9226073026657104,-2.136230230331421,0.3662109076976776,60.0,18.0,1.0,Rest
723182.3125,738973.75,750000.0625,750000.0625,750000.0625,652930.8125,750000.0625,599818.0625,0.01416015625,0.973876953125,0.209716796875,-2.136230230331421,-2.014159917831421,0.4577636420726776,60.0,19.0,1.0,Rest
646934.25,661246.6875,750000.0625,750000.0625,750000.0625,582378.6875,750000.0625,537583.0625,0.01416015625,0.96923828125,0.210693359375,-2.471923589706421,-1.9226073026657104,0.5493163466453552,60.0,20.0,1.0,Rest
615425.1875,629232.375,750000.0625,750000.0625,750000.0625,552617.5625,750000.0625,512292.25,0.015625,0.967529296875,0.208740234375,-2.624511480331421,-1.8310545682907104,0.7019042372703552,60.0,21.0,1.0,Rest
592769.5625,606463.0,750000.0625,750000.0625,750000.0625,531040.75,750000.0625,494456.5625,0.018798828125,0.965576171875,0.209716796875,-2.624511480331421,-1.6784666776657104,0.6408690810203552,60.0,22.0,1.0,Rest
572454.6875,586183.75,750000.0625,750000.0625,750000.0625,511706.03125,750000.0625,478575.09375,0.01953125,0.962158203125,0.209716796875,-2.563476324081421,-1.5563963651657104,0.7019042372703552,60.0,23.0,1.0,Rest
553861.3125,567572.3125,750000.0625,750000.0625,750000.0625,494042.875,750000.0625,463973.15625,0.021484375,0.958740234375,0.208251953125,-2.532958745956421,-1.4343260526657104,0.7324218153953552,60.0,24.0,1.0,Rest
536615.625,550115.875,750000.0625,750000.0625,750000.0625,477709.09375,750000.0625,450284.75,0.020751953125,0.957763671875,0.208251953125,-2.380370855331421,-1.2817381620407104,0.7019042372703552,60.0,25.0,1.0,Rest
520671.65625,533970.4375,750000.0625,750000.0625,750000.0625,462657.25,750000.0625,437565.8125,0.022216796875,0.956787109375,0.208984375,-2.166747808456421,-1.0681151151657104,0.7934569716453552,60.0,26.0,1.0,Rest
506170.75,519444.65625,750000.0625,750000.0625,750000.0625,449019.9375,750000.0625,426067.53125,0.01953125,0.955078125,0.208740234375,-1.9226073026657104,-0.9155272841453552,0.7934569716453552,60.0,27.0,1.0,Rest
493021.46875,506404.71875,750000.0625,750000.0625,750000.0625,436670.5,750000.0625,415741.40625,0.019287109375,0.95556640625,0.20947265625,-1.5869139432907104,-0.7324218153953552,0.8239745497703552,60.0,28.0,1.0,Rest
480810.28125,494196.90625,750000.0625,750000.0625,750000.0625,425187.15625,750000.0625,406106.09375,0.01953125,0.957763671875,0.210205078125,-1.4038084745407104,-0.6713866591453552,0.9155272841453552,60.0,29.0,1.0,Rest
469249.15625,482483.96875,750000.0625,750000.0625,750000.0625,414341.71875,750000.0625,396890.46875,0.020751953125,0.9580078125,0.210205078125,-1.1291502714157104,-0.5798339247703552,0.7934569716453552,60.0,30.0,1.0,Rest
458402.65625,471460.71875,750000.0625,750000.0625,750000.0625,404208.34375,750000.0625,388199.84375,0.018798828125,0.958740234375,0.2080078125,-0.8850097060203552,-0.4577636420726776,0.7324218153953552,60.0,31.0,1.0,Rest
448468.1875,461518.3125,750000.0625,750000.0625,750000.0625,394965.53125,750000.0625,380311.03125,0.017333984375,0.96142578125,0.2099609375,-0.7629393935203552,-0.3051757514476776,0.7019042372703552,60.0,32.0,1.0,Rest
439423.15625,452579.65625,750000.0625,750000.0625,750000.0625,386554.125,750000.0625,373199.125,0.01904296875,0.966552734375,0.209716796875,-0.6103515028953552,-0.2136230319738388,0.5798339247703552,60.0,33.0,1.0,Rest
430928.96875,444099.3125,750000.0625,750000.0625,750000.0625,378635.4375,750000.0625,366478.15625,0.01806640625,0.967529296875,0.213134765625,-0.3662109076976776,-0.1220703050494194,0.4272460639476776,60.0,34.0,1.0,Rest
422762.25,435787.78125,750000.0625,750000.0625,750000.0625,371022.34375,750000.0625,359933.375,0.015869140625,0.969482421875,0.212646484375,-0.3662109076976776,0.0,0.3356933295726776,60.0,35.0,1.0,Rest
415005.03125,427873.5625,750000.0625,750000.0625,750000.0625,363823.84375,750000.0625,353691.78125,0.015380859375,0.9716796875,0.216552734375,-0.2746581733226776,-0.0915527269244194,0.3051757514476776,60.0,36.0,1.0,Rest
407891.09375,420745.59375,750000.0625,750000.0625,750000.0625,357253.40625,750000.0625,348040.8125,0.014892578125,0.974609375,0.21337890625,-0.3051757514476776,0.0610351525247097,0.2136230319738388,60.0,37.0,1.0,Rest
401400.34375,414339.125,750000.0625,750000.0625,750000.0625,351259.8125,740128.5,342943.53125,0.01416015625,0.97607421875,0.21240234375,-0.2441406100988388,0.0610351525247097,0.1831054538488388,60.0,38.0,1.0,Rest
395266.21875,408206.8125,750000.0625,750000.0625,750000.0625,345570.40625,725286.875,338099.03125,0.015380859375,0.97607421875,0.21533203125,-0.2136230319738388,0.0915527269244194,-0.03051757626235485,60.0,39.0,1.0,Rest
389283.1875,402085.0,750000.0625,750000.0625,750000.0625,340021.5625,711055.0,333284.09375,0.01611328125,0.978271484375,0.213134765625,-0.1831054538488388,0.0610351525247097,-0.1831054538488388,60.0,40.0,1.0,Rest
383535.65625,396185.125,750000.0625,750000.0625,750000.0625,334725.0625,697441.625,328636.375,0.015380859375,0.981689453125,0.213623046875,-0.2441406100988388,0.03051757626235485,-0.2746581733226776,60.0,41.0,1.0,Rest
378249.90625,390881.4375,750000.0625,750000.0625,750000.0625,329872.5,684640.75,324422.09375,0.014892578125,0.980712890625,0.216064453125,-0.3051757514476776,0.03051757626235485,-0.3051757514476776,60.0,42.0,1.0,Rest
373445.90625,386157.96875,750000.0625,750000.0625,750000.0625,325463.3125,672688.1875,320660.09375,0.015869140625,0.977783203125,0.21435546875,-0.3662109076976776,0.1220703050494194,-0.2746581733226776,60.0,43.0,1.0,Rest
368876.59375,381592.84375,750000.0625,750000.0625,750000.0625,321256.90625,661336.5,317058.25,0.015625,0.97607421875,0.211181640625,-0.5493163466453552,0.0610351525247097,-0.3051757514476776,60.0,44.0,1.0,Rest
364366.0,376958.78125,750000.0625,750000.0625,750000.0625,317097.15625,650377.6875,313434.9375,0.016845703125,0.9736328125,0.20947265625,-0.5493163466453552,0.0610351525247097,-0.3356933295726776,60.0,45.0,1.0,Rest
359981.9375,372431.125,750000.0625,750000.0625,750000.0625,313075.34375,639829.0625,309884.875,0.015625,0.97607421875,0.208740234375,-0.3967284858226776,0.1525878757238388,-0.3356933295726776,60.0,46.0,1.0,Rest
355954.3125,368387.875,750000.0625,750000.0625,750000.0625,309387.3125,629890.875,306659.34375,0.0146484375,0.976806640625,0.205810546875,-0.3967284858226776,0.2136230319738388,-0.3051757514476776,60.0,47.0,1.0,Rest
352328.875,364837.53125,750000.0625,750000.0625,750000.0625,306058.875,620610.8125,303816.46875,0.0146484375,0.974853515625,0.206787109375,-0.3662109076976776,0.2136230319738388,-0.3967284858226776,60.0,48.0,1.0,Rest
348873.03125,361391.15625,750000.0625,750000.0625,750000.0625,302878.84375,611760.9375,301089.28125,0.012451171875,0.97216796875,0.210693359375,-0.4882812201976776,0.2441406100988388,-0.3662109076976776,60.0,49.0,1.0,Rest
345393.75,357792.25,750000.0625,750000.0625,750000.0625,299676.28125,603120.625,298273.59375,0.015625,0.97119140625,0.21142578125,-0.4577636420726776,0.1831054538488388,-0.2746581733226776,60.0,50.0,1.0,Rest
341987.15625,354250.65625,750000.0625,750000.0625,750000.0625,296553.84375,594747.6875,295495.96875,0.013916015625,0.96533203125,0.2099609375,-0.3967284858226776,0.2136230319738388,-0.2136230319738388,60.0,51.0,1.0,Rest
338872.03125,351127.5,750000.0625,750000.0625,750000.0625,293719.625,586861.4375,293000.0,0.011962890625,0.9638671875,0.210693359375,-0.3967284858226776,0.1525878757238388,-0.2746581733226776,60.0,52.0,1.0,Rest
336087.8125,348425.8125,750000.0625,750000.0625,750000.0625,291180.21875,579511.625,290828.125,0.01123046875,0.96435546875,0.209228515625,-0.1831054538488388,0.1525878757238388,-0.3051757514476776,60.0,53.0,1.0,Rest
333407.9375,345762.09375,750000.0625,750000.0625,750000.0625,288718.46875,572471.1875,288727.6875,0.008544921875,0.966064453125,0.206298828125,0.0610351525247097,0.03051757626235485,-0.2746581733226776,60.0,54.0,1.0,Rest
330683.15625,342919.59375,750000.0625,750000.0625,750000.0625,286202.5625,565547.0625,286520.78125,0.008056640625,0.967529296875,0.205078125,0.0915527269244194,-0.0915527269244194,-0.3662109076976776,60.0,55.0,1.0,Rest
327998.375,340103.09375,750000.0625,750000.0625,750000.0625,283741.90625,558792.8125,284321.8125,0.006103515625,0.96875,0.206298828125,0.1220703050494194,-0.1831054538488388,-0.3967284858226776,60.0,56.0,1.0,Rest
325540.03125,337634.1875,750000.0625,750000.0625,750000.0625,281515.0625,552402.375,282347.25,0.006591796875,0.970703125,0.207275390625,0.1831054538488388,-0.3356933295726776,-0.3662109076976776,60.0,57.0,1.0,Rest
323365.90625,335539.40625,750000.0625,750000.0625,750000.0625,279542.1875,546452.375,280674.625,0.007568359375,0.97216796875,0.2080078125,0.1831054538488388,-0.4577636420726776,-0.4272460639476776,60.0,58.0,1.0,Rest
321276.75,333476.6875,750000.0625,750000.0625,750000.0625,277625.9375,540749.1875,279050.90625,0.008056640625,0.973876953125,0.21142578125,0.3051757514476776,-0.5187987685203552,-0.3967284858226776,60.0,59.0,1.0,Rest
319091.65625,331183.03125,750000.0625,750000.0625,750000.0625,275618.9375,535087.75,277281.625,0.009521484375,0.974365234375,0.209228515625,0.3051757514476776,-0.7019042372703552,-0.4577636420726776,60.0,60.0,1.0,Rest
316918.15625,328884.5625,750000.0625,750000.0625,750000.0625,273635.34375,529534.6875,275491.625,0.009765625,0.974853515625,0.20947265625,0.1831054538488388,-0.8544921278953552,-0.3662109076976776,60.0,61.0,1.0,Rest
314953.8125,326914.40625,750000.0625,750000.0625,750000.0625,271860.875,524282.46875,273928.5,0.010498046875,0.97509765625,0.208740234375,0.1220703050494194,-1.0375975370407104,-0.2746581733226776,60.0,62.0,1.0,Rest
313242.71875,325283.53125,750000.0625,750000.0625,750000.0625,270320.40625,519403.5,272635.25,0.010009765625,0.97412109375,0.20849609375,0.0,-1.1291502714157104,-0.2746581733226776,60.0,63.0,1.0,Rest
311581.8125,323644.875,750000.0625,750000.0625,750000.0625,268808.15625,514705.09375,271362.09375,0.009521484375,0.97412109375,0.205078125,-0.03051757626235485,-1.1596678495407104,-0.2441406100988388,60.0,64.0,1.0,Rest
309826.3125,321794.5,750000.0625,750000.0625,750000.0625,267192.84375,510018.28125,269927.71875,0.010986328125,0.97412109375,0.205810546875,-0.0610351525247097,-1.2512205839157104,-0.2441406100988388,60.0,65.0,1.0,Rest
308053.375,319910.78125,750000.0625,750000.0625,750000.0625,265573.53125,505387.625,268460.90625,0.01123046875,0.97509765625,0.20556640625,-0.03051757626235485,-1.3427733182907104,-0.2136230319738388,60.0,66.0,1.0,Rest
306468.09375,318324.34375,750000.0625,750000.0625,750000.0625,264144.625,501011.34375,267203.84375,0.0107421875,0.97509765625,0.207763671875,-0.0610351525247097,-1.4038084745407104,-0.0915527269244194,60.0,67.0,1.0,Rest
305109.1875,317047.8125,750000.0625,750000.0625,750000.0625,262923.9375,496947.15625,266181.75,0.013427734375,0.976806640625,0.2060546875,-0.2441406100988388,-1.4648436307907104,-0.1525878757238388,60.0,68.0,1.0,Rest
303785.34375,315754.25,750000.0625,750000.0625,750000.0625,261718.828125,493025.3125,265172.15625,0.013671875,0.9755859375,0.207763671875,-0.4272460639476776,-1.4648436307907104,-0.0915527269244194,60.0,69.0,1.0,Rest
302364.59375,314250.0,750000.0625,750000.0625,750000.0625,260417.0625,489094.28125,264026.0625,0.013916015625,0.974609375,0.208740234375,-0.5798339247703552,-1.4343260526657104,0.0915527269244194,60.0,70.0,1.0,Rest
300907.78125,312691.1875,750000.0625,750000.0625,750000.0625,259097.765625,485193.28125,262824.875,0.015625,0.970947265625,0.2080078125,-0.7324218153953552,-1.4038084745407104,0.1831054538488388,60.0,71.0,1.0,Rest
299610.75,311396.28125,750000.0625,750000.0625,750000.0625,257933.515625,481502.71875,261784.8125,0.015380859375,0.9716796875,0.2080078125,-0.7934569716453552,-1.3427733182907104,0.2136230319738388,60.0,72.0,1.0,Rest
298527.9375,310401.09375,750000.0625,750000.0625,750000.0625,256957.984375,478101.6875,260987.109375,0.0146484375,0.970458984375,0.20703125,-0.9765624403953552,-1.3427733182907104,0.3662109076976776,60.0,73.0,1.0,Rest
297467.125,309370.15625,750000.0625,750000.0625,750000.0625,255979.96875,474806.25,260189.25,0.01220703125,0.96875,0.208251953125,-1.0681151151657104,-1.4343260526657104,0.4272460639476776,60.0,74.0,1.0,Rest
296293.84375,308109.96875,750000.0625,750000.0625,750000.0625,254890.453125,471457.59375,259221.953125,0.013427734375,0.965576171875,0.20654296875,-1.0986326932907104,-1.4038084745407104,0.3662109076976776,60.0,75.0,1.0,Rest
295084.34375,306797.46875,750000.0625,750000.0625,750000.0625,253787.703125,468117.78125,258215.5,0.012451171875,0.9638671875,0.206298828125,-1.0681151151657104,-1.3122557401657104,0.3967284858226776,60.0,76.0,1.0,Rest
294034.1875,305752.5625,750000.0625,750000.0625,750000.0625,252854.65625,464989.09375,257398.953125,0.01220703125,0.96142578125,0.205810546875,-1.0375975370407104,-1.3122557401657104,0.4272460639476776,60.0,77.0,1.0,Rest
293178.375,304982.875,750000.0625,750000.0625,750000.0625,252097.65625,462103.65625,256783.921875,0.013427734375,0.957275390625,0.203857421875,-0.8850097060203552,-1.3732908964157104,0.4272460639476776,60.0,78.0,1.0,Rest
292332.59375,304170.25,750000.0625,747832.4375,750000.0625,251333.390625,459325.78125,256166.46875,0.013427734375,0.95947265625,0.204833984375,-0.7324218153953552,-1.4343260526657104,0.3967284858226776,60.0,79.0,1.0,Rest
291367.25,303134.28125,750000.0625,745136.0,750000.0625,250449.78125,456486.21875,255390.859375,0.013671875,0.957763671875,0.205078125,-0.6713866591453552,-1.4343260526657104,0.3051757514476776,60.0,80.0,1.0,Rest
290342.375,302013.03125,750000.0625,742417.875,750000.0625,249523.71875,453601.6875,254541.765625,0.013427734375,0.959716796875,0.204345703125,-0.4882812201976776,-1.4648436307907104,0.2746581733226776,60.0,81.0,1.0,Rest
289456.53125,301138.71875,750000.0625,739912.5,750000.0625,248725.484375,450915.96875,253846.71875,0.012939453125,0.962890625,0.2041015625,-0.1831054538488388,-1.4648436307907104,0.1831054538488388,60.0,82.0,1.0,Rest
288769.71875,300529.15625,750000.0625,737683.875,750000.0625,248110.28125,448457.28125,253365.34375,0.01318359375,0.96533203125,0.206298828125,-0.0915527269244194,-1.3122557401657104,0.1831054538488388,60.0,83.0,1.0,Rest
288108.0,299902.3125,750000.0625,735520.125,750000.0625,247504.71875,446061.625,252885.328125,0.015869140625,0.968505859375,0.2060546875,-0.1525878757238388,-1.4038084745407104,0.1220703050494194,60.0,84.0,1.0,Rest
287318.09375,299034.25,750000.0625,733243.3125,750000.0625,246767.296875,443573.78125,252233.1875,0.01513671875,0.969482421875,0.20703125,-0.1220703050494194,-1.4648436307907104,0.1220703050494194,60.0,85.0,1.0,Rest
286458.71875,298072.59375,750000.0625,730932.8125,750000.0625,245975.421875,441075.5625,251504.609375,0.014892578125,0.971923828125,0.205322265625,-0.0610351525247097,-1.4038084745407104,0.03051757626235485,60.0,86.0,1.0,Rest
285717.96875,297335.53125,750000.0625,728810.125,750000.0625,245308.796875,438742.78125,250923.46875,0.0146484375,0.973876953125,0.2060546875,-0.2136230319738388,-1.4038084745407104,-0.0915527269244194,60.0,87.0,1.0,Rest
285167.6875,296873.75,750000.0625,726951.5625,750000.0625,244819.203125,436624.28125,250550.1875,0.01611328125,0.973876953125,0.20849609375,-0.3967284858226776,-1.3732908964157104,-0.2136230319738388,60.0,88.0,1.0,Rest
284635.34375,296384.15625,749918.0625,725149.875,749944.8125,244336.9375,434572.375,250188.984375,0.018310546875,0.975341796875,0.205322265625,-0.3662109076976776,-1.3427733182907104,-0.2136230319738388,60.0,89.0,1.0,Rest
283966.59375,295652.625,748686.8125,723219.4375,748714.125,243723.25,432419.8125,249653.0,0.017822265625,0.974609375,0.206787109375,-0.4882812201976776,-1.3427733182907104,-0.3051757514476776,60.0,90.0,1.0,Rest
283217.90625,294807.09375,747502.375,721225.9375,747530.0,243042.6875,430209.15625,249026.078125,0.01611328125,0.973876953125,0.208251953125,-0.5187987685203552,-1.2817381620407104,-0.2441406100988388,60.0,91.0,1.0,Rest
282606.4375,294197.59375,746366.0,719422.9375,746393.6875,242501.15625,428157.34375,248557.40625,0.01611328125,0.975341796875,0.205322265625,-0.5798339247703552,-1.2817381620407104,-0.2441406100988388,60.0,92.0,1.0,Rest
282179.6875,293855.96875,745272.3125,717869.75,745305.0,242129.578125,426332.8125,248289.984375,0.014404296875,0.97900390625,0.205322265625,-0.6103515028953552,-1.3122557401657104,-0.2746581733226776,60.0,93.0,1.0,Rest
281748.65625,293462.875,744209.25,716333.1875,744255.125,241727.328125,424537.34375,247998.515625,0.016845703125,0.9775390625,0.2080078125,-0.7324218153953552,-1.2817381620407104,-0.4272460639476776,60.0,94.0,1.0,Rest
281162.0625,292806.78125,743211.1875,714682.125,743242.75,241170.78125,422603.28125,247516.609375,0.01611328125,0.977783203125,0.208251953125,-0.9460448622703552,-1.2207030057907104,-0.4577636420726776,60.0,95.0,1.0,Rest
280510.5625,292070.71875,742244.3125,713011.3125,742272.4375,240574.875,420621.21875,246947.265625,0.01708984375,0.978271484375,0.2080078125,-1.1596678495407104,-1.1291502714157104,-0.4577636420726776,60.0,96.0,1.0,Rest
279992.53125,291573.0625,741319.125,711515.8125,741347.0625,240127.3125,418812.34375,246552.09375,0.016357421875,0.975830078125,0.20849609375,-1.4343260526657104,-1.0986326932907104,-0.4272460639476776,60.0,97.0,1.0,Rest
279646.09375,291311.0,740432.0625,710235.1875,740459.9375,239829.140625,417213.46875,246351.46875,0.016357421875,0.975341796875,0.20751953125,-1.4953612089157104,-1.0375975370407104,-0.5187987685203552,60.0,98.0,1.0,Rest
279298.5625,291011.59375,739573.75,708972.125,739601.8125,239510.84375,415646.0,246143.5,0.017333984375,0.9716796875,0.210693359375,-1.5258787870407104,-0.9765624403953552,-0.5798339247703552,60.0,99.0,1.0,Rest
278815.5,290468.1875,738752.25,707556.9375,738779.9375,239061.3125,413960.3125,245761.28125,0.015869140625,0.96923828125,0.208984375,-1.5869139432907104,-0.9765624403953552,-0.6103515028953552,60.0,100.0,1.0,Rest
278252.9375,289812.5625,737961.3125,706047.8125,737988.8125,238545.703125,412198.46875,245264.625,0.015625,0.968017578125,0.208251953125,-1.6784666776657104,-0.9460448622703552,-0.4577636420726776,60.0,101.0,1.0,Rest
277799.5625,289360.25,737197.75,704688.3125,737225.5,238143.0,410557.5625,244902.359375,0.015380859375,0.966064453125,0.20751953125,-1.7089842557907104,-0.9765624403953552,-0.4272460639476776,60.0,102.0,1.0,Rest
277525.0,289170.0,736465.25,703562.6875,736493.5,237905.0,409131.53125,244751.34375,0.015869140625,0.9658203125,0.206787109375,-1.5869139432907104,-1.0681151151657104,-0.5493163466453552,60.0,103.0,1.0,Rest
277252.65625,288936.53125,735761.6875,702459.75,735789.75,237653.0625,407749.9375,244593.1875,0.015869140625,0.965087890625,0.207763671875,-1.5563963651657104,-1.0375975370407104,-0.4577636420726776,60.0,104.0,1.0,Rest
276844.53125,288463.84375,735086.9375,701211.8125,735115.0,237266.375,406256.28125,244260.953125,0.01513671875,0.961181640625,0.207275390625,-1.4953612089157104,-0.9765624403953552,-0.2441406100988388,60.0,105.0,1.0,Rest
276350.71875,287871.53125,734436.8125,699890.625,734464.4375,236812.265625,404674.5,243839.03125,0.015869140625,0.95947265625,0.20654296875,-1.3732908964157104,-1.0375975370407104,-0.3356933295726776,60.0,106.0,1.0,Rest
275979.40625,287496.1875,733815.9375,698723.6875,733843.8125,236479.953125,403214.21875,243553.203125,0.01611328125,0.96142578125,0.205322265625,-1.2207030057907104,-0.8850097060203552,-0.3967284858226776,60.0,107.0,1.0,Rest
275769.03125,287365.3125,733215.6875,697761.5,733243.5625,236293.4375,401939.1875,243447.25,0.0166015625,0.962890625,0.208251953125,-1.0986326932907104,-0.9155272841453552,-0.4577636420726776,60.0,108.0,1.0,Rest
275564.21875,287200.15625,732640.25,696826.5625,732668.25,236102.65625,400716.0,243339.34375,0.016357421875,0.965087890625,0.211669921875,-1.0070799589157104,-0.7934569716453552,-0.4272460639476776,60.0,109.0,1.0,Rest
275216.25,286794.1875,732083.4375,695738.375,732111.6875,235768.796875,399373.03125,243063.78125,0.015625,0.964111328125,0.21240234375,-0.9460448622703552,-0.8544921278953552,-0.5187987685203552,60.0,110.0,1.0,Rest
274768.03125,286259.96875,731547.0625,694556.5,731575.3125,235357.984375,397933.84375,242681.125,0.015625,0.965576171875,0.212646484375,-0.8850097060203552,-0.8239745497703552,-0.5798339247703552,60.0,111.0,1.0,Rest
274434.65625,285934.875,731035.9375,693519.75,731064.1875,235071.875,396608.03125,242428.375,0.01611328125,0.968017578125,0.211669921875,-0.9155272841453552,-0.7934569716453552,-0.6713866591453552,60.0,112.0,1.0,Rest
274270.75,285854.15625,730543.3125,692693.8125,730571.1875,234934.546875,395466.3125,242362.921875,0.015625,0.969970703125,0.214111328125,-0.7629393935203552,-0.7019042372703552,-0.6408690810203552,60.0,113.0,1.0,Rest
274113.3125,285733.09375,730065.5625,691880.3125,730093.125,234778.4375,394354.625,242284.78125,0.017822265625,0.970947265625,0.216064453125,-0.8239745497703552,-0.5798339247703552,-0.7019042372703552,60.0,114.0,1.0,Rest
273814.0625,285365.1875,729607.1875,690915.3125,729634.9375,234487.6875,393134.84375,242042.5,0.016845703125,0.970703125,0.217529296875,-0.7934569716453552,-0.6408690810203552,-0.7019042372703552,60.0,115.0,1.0,Rest
273420.5,284873.34375,729165.375,689853.1875,729193.3125,234123.0,391824.65625,241692.828125,0.014892578125,0.969970703125,0.21728515625,-0.9155272841453552,-0.6408690810203552,-0.7934569716453552,60.0,116.0,1.0,Rest
273121.25,284576.78125,728738.9375,688925.125,728766.875,233868.8125,390609.4375,241473.859375,0.01416015625,0.970703125,0.217041015625,-1.0986326932907104,-0.5798339247703552,-0.6713866591453552,60.0,117.0,1.0,Rest
272981.59375,284532.09375,728333.0625,688195.6875,728361.0625,233755.0,389574.84375,241424.59375,0.01416015625,0.96875,0.2197265625,-1.1291502714157104,-0.6103515028953552,-0.6713866591453552,60.0,118.0,1.0,Rest
272847.40625,284450.0,727940.75,687485.4375,727968.75,233626.609375,388576.96875,241371.578125,0.013427734375,0.96875,0.217041015625,-1.2207030057907104,-0.5798339247703552,-0.5798339247703552,60.0,119.0,1.0,Rest
272566.3125,284113.03125,727557.25,686617.25,727585.25,233362.765625,387450.78125,241143.5,0.013671875,0.967529296875,0.217529296875,-1.1901854276657104,-0.5798339247703552,-0.5493163466453552,60.0,120.0,1.0,Rest
272203.125,283662.5,727192.6875,685657.9375,727220.6875,233037.328125,386240.03125,240826.375,0.012939453125,0.966064453125,0.21875,-1.1596678495407104,-0.6408690810203552,-0.4577636420726776,60.0,121.0,1.0,Rest
271958.0625,283418.53125,726845.625,684845.9375,726873.3125,232833.125,385147.9375,240654.1875,0.01220703125,0.96435546875,0.21728515625,-1.0070799589157104,-0.6713866591453552,-0.3967284858226776,60.0,122.0,1.0,Rest
271881.34375,283432.125,726515.25,684236.9375,726542.875,232773.140625,384243.59375,240662.5,0.01123046875,0.96484375,0.216796875,-0.9155272841453552,-0.7629393935203552,-0.4882812201976776,60.0,123.0,1.0,Rest
271798.3125,283397.25,726194.625,683626.25,726221.875,232689.265625,383359.09375,240654.8125,0.013427734375,0.962646484375,0.2138671875,-0.6713866591453552,-0.6103515028953552,-0.5187987685203552,60.0,124.0,1.0,Rest
271560.84375,283096.46875,725878.5625,682840.3125,725905.9375,232456.0,382336.1875,240451.671875,0.015380859375,0.962158203125,0.21435546875,-0.4882812201976776,-0.5187987685203552,-0.5187987685203552,60.0,125.0,1.0,Rest
271235.84375,282677.96875,725576.625,681960.4375,725604.0,232154.4375,381218.5,240144.921875,0.012939453125,0.9638671875,0.214111328125,-0.4882812201976776,-0.5493163466453552,-0.3967284858226776,60.0,126.0,1.0,Rest
271011.6875,282458.5625,725288.9375,681210.5,725316.4375,231964.71875,380203.8125,239974.859375,0.01220703125,0.966064453125,0.21728515625,-0.3356933295726776,-0.5798339247703552,-0.4272460639476776,60.0,127.0,1.0,Rest
270941.6875,282485.65625,725012.125,680661.25,725039.0625,231919.46875,379365.96875,239992.5625,0.01318359375,0.96826171875,0.2177734375,-0.3051757514476776,-0.5493163466453552,-0.3356933295726776,60.0,128.0,1.0,Rest
270867.65625,282469.90625,724744.375,680121.875,724771.1875,231857.875,378560.875,240007.046875,0.013427734375,0.9697265625,0.22021484375,-0.2441406100988388,-0.5493163466453552,-0.2136230319738388,60.0,129.0,1.0,Rest
270651.28125,282202.59375,724481.3125,679410.875,724508.125,231650.359375,377621.9375,239828.234375,0.011474609375,0.970703125,0.2216796875,-0.3051757514476776,-0.4882812201976776,-0.3967284858226776,60.0,130.0,1.0,Rest
270346.40625,281810.4375,724231.9375,678601.125,724258.875,231367.125,376591.6875,239546.421875,0.011962890625,0.97265625,0.2197265625,-0.3356933295726776,-0.5493163466453552,-0.2746581733226776,60.0,131.0,1.0,Rest
270139.96875,281606.875,723993.0625,677915.125,724020.3125,231190.8125,375647.625,239391.03125,0.01220703125,0.972900390625,0.217041015625,-0.3662109076976776,-0.5493163466453552,-0.2441406100988388,60.0,132.0,1.0,Rest
270087.84375,281644.78125,723760.25,677422.0625,723787.1875,231155.3125,374872.375,239415.359375,0.013427734375,0.975341796875,0.220947265625,-0.4577636420726776,-0.5798339247703552,-0.2136230319738388,60.0,133.0,1.0,Rest
270049.21875,281655.78125,723536.375,676948.125,723563.0,231118.203125,374145.25,239446.296875,0.010986328125,0.97314453125,0.219970703125,-0.4272460639476776,-0.5798339247703552,-0.2136230319738388,60.0,134.0,1.0,Rest
269852.0,281401.15625,723318.9375,676300.8125,723345.5625,230922.59375,373275.125,239291.171875,0.0126953125,0.973388671875,0.224365234375,-0.5187987685203552,-0.6103515028953552,-0.2746581733226776,60.0,135.0,1.0,Rest
269569.03125,281032.15625,723111.0,675553.6875,723137.4375,230658.65625,372307.3125,239032.96875,0.011474609375,0.972900390625,0.221435546875,-0.6103515028953552,-0.5493163466453552,-0.2746581733226776,60.0,136.0,1.0,Rest
269371.0625,280841.375,722911.75,674918.8125,722938.25,230500.140625,371427.09375,238885.4375,0.009765625,0.972412109375,0.218017578125,-0.5493163466453552,-0.7019042372703552,-0.0915527269244194,60.0,137.0,1.0,Rest
269334.34375,280899.84375,722721.875,674483.125,722748.25,230493.34375,370731.3125,238928.359375,0.01171875,0.97216796875,0.219482421875,-0.5493163466453552,-0.6713866591453552,-0.1220703050494194,60.0,138.0,1.0,Rest
269303.75,280926.03125,722536.4375,674057.8125,722562.9375,230470.1875,370064.96875,238964.65625,0.009765625,0.9716796875,0.218505859375,-0.6103515028953552,-0.6408690810203552,-0.03051757626235485,60.0,139.0,1.0,Rest
269126.375,280701.1875,722355.3125,673460.4375,722381.25,230301.75,369262.8125,238825.546875,0.0107421875,0.9716796875,0.214599609375,-0.6408690810203552,-0.7324218153953552,0.0610351525247097,60.0,140.0,1.0,Rest
268850.5625,280339.0,722177.5625,672753.9375,722203.5,230056.5,368350.15625,238578.15625,0.01171875,0.971923828125,0.215576171875,-0.4577636420726776,-0.9155272841453552,-0.0610351525247097,60.0,141.0,1.0,Rest
268669.0625,280168.03125,722007.0,672167.4375,722033.5625,229912.296875,367527.34375,238452.09375,0.01171875,0.9716796875,0.215576171875,-0.3662109076976776,-0.9460448622703552,-0.03051757626235485,60.0,142.0,1.0,Rest
268641.34375,280237.5,721846.3125,671776.6875,721872.875,229913.90625,366876.1875,238509.484375,0.011962890625,0.972412109375,0.217041015625,-0.3051757514476776,-0.9460448622703552,-0.0915527269244194,60.0,143.0,1.0,Rest
268623.625,280279.8125,721693.4375,671395.3125,721719.375,229908.265625,366253.46875,238558.84375,0.011474609375,0.970703125,0.219482421875,-0.2441406100988388,-0.9460448622703552,0.0,60.0,144.0,1.0,Rest
268459.9375,280069.78125,721541.4375,670843.3125,721567.625,229756.453125,365497.71875,238431.96875,0.009765625,0.970703125,0.21923828125,-0.1831054538488388,-1.0070799589157104,-0.0610351525247097,60.0,145.0,1.0,Rest
268208.34375,279737.625,721397.5,670191.0,721423.5,229531.765625,364659.34375,238206.9375,0.009765625,0.971435546875,0.21923828125,-0.3051757514476776,-1.0375975370407104,-0.0610351525247097,60.0,146.0,1.0,Rest
268041.3125,279580.8125,721257.9375,669647.1875,721283.6875,229400.25,363894.46875,238082.75,0.010986328125,0.9716796875,0.218505859375,-0.2136230319738388,-1.0681151151657104,0.0,60.0,147.0,1.0,Rest
268042.03125,279677.03125,721126.25,669301.9375,721152.0625,229417.78125,363301.78125,238147.5625,0.0087890625,0.973876953125,0.219482421875,-0.1220703050494194,-1.0986326932907104,-0.0610351525247097,60.0,148.0,1.0,Rest
268044.1875,279728.34375,720997.0625,668963.0,721022.6875,229422.25,362734.0625,238207.828125,0.009033203125,0.97509765625,0.22021484375,-0.1831054538488388,-1.2817381620407104,-0.0915527269244194,60.0,149.0,1.0,Rest
267891.21875,279525.375,720866.9375,668451.125,720892.625,229277.234375,362029.0625,238090.171875,0.00927734375,0.973876953125,0.216552734375,-0.2136230319738388,-1.4953612089157104,-0.03051757626235485,60.0,150.0,1.0,Rest
267634.96875,279190.375,720742.125,667826.0,720767.875,229051.5625,361215.65625,237858.421875,0.009033203125,0.976318359375,0.21728515625,-0.2136230319738388,-1.5258787870407104,0.0,60.0,151.0,1.0,Rest
267472.875,279044.1875,720622.125,667318.8125,720648.0625,228930.6875,360488.25,237744.78125,0.0078125,0.977783203125,0.218017578125,-0.3051757514476776,-1.7089842557907104,0.03051757626235485,60.0,152.0,1.0,Rest
267472.25,279139.6875,720508.8125,667001.5625,720534.625,228954.03125,359931.15625,237818.28125,0.0087890625,0.977783203125,0.218505859375,-0.3356933295726776,-1.7700194120407104,0.03051757626235485,60.0,153.0,1.0,Rest
267479.6875,279200.21875,720394.875,666688.75,720420.25,228955.453125,359399.0,237879.875,0.005859375,0.975341796875,0.21533203125,-0.3662109076976776,-1.8310545682907104,0.0610351525247097,60.0,154.0,1.0,Rest
267359.96875,279023.90625,720289.8125,666217.125,720314.6875,228833.5,358745.5,237776.609375,0.00732421875,0.975341796875,0.2158203125,-0.5187987685203552,-2.044677495956421,0.0610351525247097,60.0,155.0,1.0,Rest
267138.0625,278709.28125,720187.625,665629.875,720212.9375,228628.671875,357971.15625,237559.8125,0.0078125,0.972900390625,0.21435546875,-0.5493163466453552,-2.227782964706421,0.0,60.0,156.0,1.0,Rest
267007.25,278580.90625,720088.125,665157.8125,720113.875,228527.28125,357276.8125,237460.65625,0.010986328125,0.97119140625,0.21484375,-0.4882812201976776,-2.410888433456421,0.0610351525247097,60.0,157.0,1.0,Rest
267026.90625,278691.125,719993.875,664873.25,720018.9375,228566.359375,356756.125,237545.765625,0.013671875,0.96923828125,0.2109375,-0.5187987685203552,-2.410888433456421,-0.03051757626235485,60.0,158.0,1.0,Rest
267051.9375,278767.03125,719900.8125,664594.5625,719925.6875,228587.375,356269.9375,237629.71875,0.014404296875,0.96826171875,0.208984375,-0.5798339247703552,-2.441406011581421,-0.0610351525247097,60.0,159.0,1.0,Rest
266921.9375,278584.375,719805.875,664132.875,719830.625,228460.3125,355637.90625,237515.546875,0.015869140625,0.967041015625,0.209228515625,-0.4577636420726776,-2.410888433456421,0.0,60.0,160.0,1.0,Rest
266695.21875,278271.625,719717.6875,663559.0625,719742.5,228252.09375,354897.78125,237283.984375,0.017333984375,0.96826171875,0.208984375,-0.4882812201976776,-2.380370855331421,0.0915527269244194,60.0,161.0,1.0,Rest
266562.96875,278144.5,719634.0,663104.6875,719659.0,228151.0625,354232.34375,237184.5625,0.01953125,0.967041015625,0.20849609375,-0.6713866591453552,-2.410888433456421,-0.0915527269244194,60.0,162.0,1.0,Rest
266584.25,278251.4375,719552.875,662837.5,719578.0625,228191.203125,353730.59375,237267.890625,0.016357421875,0.96728515625,0.20947265625,-0.5798339247703552,-2.288818120956421,0.03051757626235485,60.0,163.0,1.0,Rest
266622.4375,278336.09375,719474.375,662587.375,719499.1875,228224.546875,353279.09375,237352.375,0.015625,0.966064453125,0.210693359375,-0.3662109076976776,-2.319335699081421,0.1831054538488388,60.0,164.0,1.0,Rest
266518.09375,278177.5625,719399.0625,662166.6875,719423.625,228114.578125,352704.65625,237261.0,0.01513671875,0.965576171875,0.209228515625,-0.5798339247703552,-2.197265386581421,0.3051757514476776,60.0,165.0,1.0,Rest
266306.21875,277879.9375,719323.5,661626.5,719348.3125,227921.109375,352017.28125,237054.75,0.013671875,0.96630859375,0.20947265625,-0.6713866591453552,-2.380370855331421,0.2746581733226776,60.0,166.0,1.0,Rest
266184.0625,277747.0,719252.375,661195.5625,719277.0,227828.75,351392.5,236962.921875,0.01318359375,0.9658203125,0.20556640625,-0.7629393935203552,-2.441406011581421,0.1525878757238388,60.0,167.0,1.0,Rest
266218.59375,277867.34375,719184.75,660952.9375,719209.0625,227876.140625,350922.0625,237051.265625,0.014404296875,0.964599609375,0.204833984375,-0.7934569716453552,-2.441406011581421,0.0,60.0,168.0,1.0,Rest
266268.375,277972.84375,719120.3125,660726.1875,719144.0625,227921.46875,350490.375,237145.140625,0.01611328125,0.96484375,0.20263671875,-0.8850097060203552,-2.258300542831421,-0.1220703050494194,60.0,169.0,1.0,Rest
266165.75,277821.03125,719052.375,660323.0625,719076.5,227816.234375,349930.15625,237055.8125,0.015869140625,0.966552734375,0.204833984375,-0.8239745497703552,-2.105712652206421,-0.5187987685203552,60.0,170.0,1.0,Rest
265953.0625,277519.53125,718985.75,659799.3125,719010.0625,227618.015625,349262.375,236845.625,0.017333984375,0.9677734375,0.205078125,-0.8239745497703552,-1.9531248807907104,-0.6103515028953552,60.0,171.0,1.0,Rest
265828.6875,277397.0625,718923.9375,659385.6875,718948.0,227524.671875,348667.90625,236752.8125,0.01806640625,0.969482421875,0.2041015625,-0.9460448622703552,-1.8615721464157104,-0.7934569716453552,60.0,172.0,1.0,Rest
265868.03125,277528.03125,718866.9375,659166.625,718890.9375,227586.71875,348245.8125,236851.875,0.0166015625,0.970947265625,0.204833984375,-1.0070799589157104,-1.8310545682907104,-0.7934569716453552,60.0,173.0,1.0,Rest
265913.625,277634.53125,718810.125,658957.875,718834.625,227634.5625,347843.59375,236943.171875,0.01611328125,0.97265625,0.2060546875,-1.2817381620407104,-1.7089842557907104,-0.8850097060203552,60.0,174.0,1.0,Rest
265821.625,277499.4375,718756.0625,658585.3125,718780.375,227547.296875,347324.84375,236872.359375,0.01416015625,0.9736328125,0.2060546875,-1.4953612089157104,-1.5869139432907104,-1.0681151151657104,60.0,175.0,1.0,Rest
265605.96875,277195.71875,718697.375,658075.625,718721.375,227352.484375,346681.84375,236664.578125,0.01611328125,0.975830078125,0.207763671875,-1.5563963651657104,-1.6784666776657104,-1.0986326932907104,60.0,176.0,1.0,Rest
265480.25,277071.34375,718642.9375,657677.125,718666.5625,227262.265625,346117.40625,236571.765625,0.015380859375,0.978759765625,0.206298828125,-1.8005369901657104,-1.5869139432907104,-1.1901854276657104,60.0,177.0,1.0,Rest
265517.28125,277197.6875,718592.875,657468.1875,718616.75,227317.4375,345717.65625,236665.46875,0.017578125,0.97998046875,0.201416015625,-2.441406011581421,-1.2512205839157104,-1.4343260526657104,60.0,178.0,1.0,Rest
265577.28125,277315.78125,718545.25,657278.1875,718568.9375,227374.734375,345352.25,236767.84375,0.015869140625,0.984375,0.206787109375,-2.349853277206421,-1.3122557401657104,-1.3122557401657104,60.0,179.0,1.0,Rest
265487.78125,277176.03125,718494.4375,656913.25,718517.6875,227287.125,344831.90625,236690.59375,0.01611328125,0.9853515625,0.2099609375,-2.777099370956421,-1.3732908964157104,-1.2817381620407104,60.0,180.0,1.0,Rest
265297.15625,276892.25,718449.0,656431.5,718472.375,227113.3125,344189.875,236507.03125,0.0185546875,0.986083984375,0.2080078125,-3.540038824081421,-1.3427733182907104,-1.4953612089157104,60.0,181.0,1.0,Rest
265184.96875,276775.9375,718403.6875,656044.1875,718426.875,227026.046875,343621.6875,236416.5625,0.01806640625,0.985107421875,0.21240234375,-3.723144292831421,-1.4038084745407104,-1.4343260526657104,60.0,182.0,1.0,Rest
265221.4375,276909.6875,718358.625,655840.6875,718382.3125,227077.546875,343228.125,236495.234375,0.021240234375,0.984375,0.208251953125,-4.119872570037842,-1.2512205839157104,-1.4038084745407104,60.0,183.0,1.0,Rest
265274.375,277014.65625,718314.9375,655654.3125,718338.5,227131.828125,342849.5,236592.25,0.0234375,0.982666015625,0.2080078125,-4.577636241912842,-0.8544921278953552,-1.4343260526657104,60.0,184.0,1.0,Rest
265191.21875,276882.96875,718274.625,655306.5,718298.125,227065.65625,342316.53125,236525.453125,0.019775390625,0.98046875,0.20556640625,-4.638671398162842,-0.5493163466453552,-1.5563963651657104,60.0,185.0,1.0,Rest
264997.28125,276603.5625,718233.1875,654834.5,718257.0625,226893.28125,341692.125,236331.703125,0.0185546875,0.978515625,0.209716796875,-4.852294445037842,-0.3356933295726776,-1.5563963651657104,60.0,186.0,1.0,Rest
264885.4375,276488.78125,718194.75,654464.1875,718217.9375,226807.0,341164.625,236247.578125,0.0166015625,0.976806640625,0.2138671875,-5.035399913787842,-0.3356933295726776,-1.3732908964157104,60.0,187.0,1.0,Rest
264930.0625,276617.25,718154.3125,654286.3125,718177.5625,226875.21875,340783.125,236350.125,0.01416015625,0.974609375,0.215087890625,-5.645751476287842,-0.3662109076976776,-1.1901854276657104,60.0,188.0,1.0,Rest
264995.5,276738.5625,718118.0625,654130.375,718141.5625,226947.734375,340432.71875,236461.4375,0.01611328125,0.969482421875,0.214111328125,-6.011962413787842,-0.2746581733226776,-1.2512205839157104,60.0,189.0,1.0,Rest
264916.28125,276607.15625,718082.25,653799.125,718105.1875,226871.5625,339958.25,236395.90625,0.017333984375,0.965087890625,0.21240234375,-6.011962413787842,-0.2136230319738388,-1.3732908964157104,60.0,190.0,1.0,Rest
264730.40625,276325.78125,718045.875,653341.0,718068.6875,226697.578125,339382.375,236209.046875,0.01806640625,0.962158203125,0.2080078125,-5.920409679412842,0.0915527269244194,-1.5563963651657104,60.0,191.0,1.0,Rest
264625.96875,276212.78125,718013.0625,652985.3125,718035.8125,226617.28125,338889.9375,236129.109375,0.0166015625,0.95947265625,0.208251953125,-5.676269054412842,0.4882812201976776,-1.7395018339157104,60.0,192.0,1.0,Rest
264667.71875,276337.40625,717980.6875,652815.4375,718003.0,226676.46875,338547.0625,236222.90625,0.017333984375,0.960693359375,0.20849609375,-5.493163585662842,0.8850097060203552,-2.044677495956421,60.0,193.0,1.0,Rest
264734.34375,276462.40625,717948.5,652667.9375,717970.9375,226741.03125,338263.1875,236333.59375,0.01416015625,0.965087890625,0.210205078125,-5.249022960662842,0.9765624403953552,-2.105712652206421,60.0,194.0,1.0,Rest
264671.75,276355.28125,717918.125,652356.375,717940.6875,226673.34375,337866.46875,236282.265625,0.009765625,0.964111328125,0.21728515625,-5.310058116912842,0.9155272841453552,-1.9531248807907104,60.0,195.0,1.0,Rest
264478.46875,276071.78125,717886.0,651897.9375,717908.5625,226499.890625,337305.625,236084.40625,0.011962890625,0.9677734375,0.2177734375,-5.554198741912842,0.6103515028953552,-1.8920897245407104,60.0,196.0,1.0,Rest
264360.4375,275950.625,717855.1875,651532.4375,717877.5625,226404.765625,336765.25,235973.09375,0.01611328125,0.96875,0.217529296875,-5.920409679412842,0.5493163466453552,-2.014159917831421,60.0,197.0,1.0,Rest
264408.90625,276088.5,717823.5625,651369.75,717845.6875,226473.078125,336388.6875,236072.78125,0.018798828125,0.968994140625,0.21484375,-6.286620616912842,0.9765624403953552,-2.258300542831421,60.0,198.0,1.0,Rest
264484.0,276227.53125,717794.125,651238.75,717816.375,226554.515625,336068.59375,236196.078125,0.01806640625,0.967041015625,0.2197265625,-6.042479991912842,1.4343260526657104,-2.349853277206421,60.0,199.0,1.0,Rest
264417.75,276119.6875,717765.125,650937.25,717787.6875,226483.890625,335648.84375,236138.859375,0.01220703125,0.969482421875,0.228759765625,-5.737304210662842,1.4648436307907104,-2.380370855331421,60.0,200.0,1.0,Rest
264238.5,275849.6875,717738.4375,650513.9375,717760.5,226314.640625,335134.75,235960.5,0.012939453125,0.972412109375,0.22705078125,-6.103515148162842,1.3427733182907104,-2.227782964706421,60.0,201.0,1.0,Rest
264131.46875,275730.6875,717713.9375,650180.625,717735.75,226236.953125,334694.3125,235880.5625,0.015380859375,0.96923828125,0.223388671875,-6.713866710662842,1.4648436307907104,-2.105712652206421,60.0,202.0,1.0,Rest
264181.90625,275858.28125,717689.0625,650025.25,717711.3125,226298.734375,334411.78125,235978.46875,0.016845703125,0.968017578125,0.22119140625,-6.958007335662842,1.6784666776657104,-2.075195074081421,60.0,203.0,1.0,Rest
264256.46875,275978.0,717659.9375,649892.3125,717682.1875,226349.15625,334161.8125,236089.953125,0.01513671875,0.9677734375,0.220947265625,-6.927489757537842,1.7395018339157104,-1.9836424589157104,60.0,204.0,1.0,Rest
264201.03125,275874.4375,717636.875,649606.4375,717659.125,226275.921875,333806.40625,236047.84375,0.015380859375,0.970458984375,0.21728515625,-7.049560070037842,1.8920897245407104,-2.014159917831421,60.0,205.0,1.0,Rest
264010.40625,275590.125,717609.9375,649169.0625,717632.125,226087.09375,333301.0,235835.140625,0.0166015625,0.96630859375,0.21728515625,-7.019042491912842,2.105712652206421,-1.8310545682907104,60.0,206.0,1.0,Rest
263898.21875,275477.5625,717583.375,648834.625,717604.9375,225999.03125,332860.21875,235740.1875,0.016357421875,0.96435546875,0.2236328125,-6.896972179412842,2.349853277206421,-1.6784666776657104,60.0,207.0,1.0,Rest
263955.78125,275612.84375,717561.75,648695.125,717583.3125,226065.203125,332595.40625,235849.890625,0.016845703125,0.963134765625,0.224365234375,-6.988524913787842,2.624511480331421,-1.4953612089157104,60.0,208.0,1.0,Rest
264023.375,275739.4375,717536.4375,648574.9375,717558.625,226130.203125,332363.03125,235964.15625,0.02001953125,0.9609375,0.222412109375,-6.927489757537842,3.021239995956421,-1.4343260526657104,60.0,209.0,1.0,Rest
263952.75,275628.21875,717513.0,648289.5,717535.125,226058.84375,332015.5,235906.9375,0.018798828125,0.95751953125,0.222900390625,-6.744384288787842,3.326415777206421,-1.1901854276657104,60.0,210.0,1.0,Rest
263779.46875,275365.28125,717492.3125,647879.3125,717514.1875,225895.140625,331563.03125,235730.359375,0.012939453125,0.95751953125,0.2275390625,-6.408690929412842,3.448486089706421,-0.8850097060203552,60.0,211.0,1.0,Rest
263680.78125,275262.71875,717473.6875,647566.125,717495.3125,225821.109375,331190.375,235657.40625,0.010009765625,0.95654296875,0.22900390625,-6.378173351287842,3.356933355331421,-0.6713866591453552,60.0,212.0,1.0,Rest
263724.03125,275390.75,717453.0625,647422.25,717474.75,225856.25,331096.6875,235744.671875,0.00732421875,0.953125,0.231689453125,-6.256103038787842,3.356933355331421,-0.7019042372703552,60.0,213.0,1.0,Rest
263781.4375,275505.375,717430.6875,647295.625,717452.5,225832.46875,331294.09375,235840.78125,0.0078125,0.95361328125,0.23095703125,-6.103515148162842,3.265380620956421,-0.6408690810203552,60.0,214.0,1.0,Rest
263718.84375,275394.875,717411.625,647015.4375,717433.1875,225704.890625,331257.15625,235783.109375,0.005615234375,0.9541015625,0.231201171875,-5.767821788787842,3.540038824081421,-0.6103515028953552,60.0,215.0,1.0,Rest
263568.5625,275155.09375,717393.9375,646626.4375,717415.375,225615.84375,330634.0,235627.625,0.00048828125,0.96044921875,0.234375,-5.249022960662842,3.265380620956421,-0.4272460639476776,60.0,216.0,1.0,Rest
263488.28125,275070.78125,717376.6875,646326.8125,717397.75,225651.328125,329881.1875,235562.453125,0.0,0.96240234375,0.23974609375,-5.401610851287842,3.082275152206421,-0.5187987685203552,60.0,217.0,1.0,Rest
263550.9375,275216.0625,717361.0625,646199.0,717382.3125,225733.5,329558.53125,235666.703125,-0.000244140625,0.96484375,0.23828125,-5.432128429412842,2.868652105331421,-0.4882812201976776,60.0,218.0,1.0,Rest
263615.9375,275339.34375,717339.125,646083.375,717360.875,225753.078125,329490.5625,235764.609375,-0.00146484375,0.9677734375,0.23828125,-5.310058116912842,2.624511480331421,-0.1831054538488388,60.0,219.0,1.0,Rest
263543.4375,275225.0,717319.0,645807.3125,717340.625,225646.328125,329292.4375,235701.484375,-0.00048828125,0.9697265625,0.2392578125,-5.432128429412842,2.410888433456421,-0.0915527269244194,60.0,220.0,1.0,Rest
263359.25,274950.78125,717299.1875,645406.375,717320.4375,225490.9375,328818.125,235521.765625,-0.001220703125,0.965087890625,0.236083984375,-5.706786632537842,2.136230230331421,-0.03051757626235485,60.0,221.0,1.0,Rest
263268.15625,274852.1875,717284.75,645108.6875,717306.0625,225457.671875,328302.34375,235453.109375,-0.001220703125,0.962890625,0.235595703125,-5.706786632537842,2.044677495956421,0.0,60.0,222.0,1.0,Rest
263337.1875,275001.9375,717272.875,644998.0625,717294.4375,225552.265625,328023.21875,235569.421875,-0.001953125,0.9580078125,0.23583984375,-5.371093273162842,1.8920897245407104,-0.03051757626235485,60.0,223.0,1.0,Rest
263413.4375,275137.5625,717255.4375,644902.375,717276.75,225616.640625,327846.46875,235686.015625,-0.00048828125,0.955322265625,0.2373046875,-5.065917491912842,1.7089842557907104,0.0915527269244194,60.0,224.0,1.0,Rest
263362.65625,275043.6875,717241.5,644650.625,717262.3125,225552.53125,327570.09375,235643.1875,-0.000244140625,0.952880859375,0.234130859375,-4.913329601287842,1.5258787870407104,0.0,60.0,225.0,1.0,Rest
263191.71875,274773.3125,717224.0,644259.1875,717245.0,225399.5625,327119.5,235464.28125,0.002197265625,0.95166015625,0.232666015625,-4.547118663787842,1.5563963651657104,0.0,60.0,226.0,1.0,Rest
263090.875,274655.84375,717206.6875,643953.6875,717227.75,225332.234375,326682.90625,235376.046875,0.002685546875,0.952392578125,0.23291015625,-4.058837413787842,1.4343260526657104,0.0915527269244194,60.0,227.0,1.0,Rest
263138.53125,274788.5,717186.9375,643829.125,717208.0625,225391.6875,326418.625,235461.953125,0.00439453125,0.951416015625,0.23291015625,-3.631591558456421,1.3732908964157104,0.2136230319738388,60.0,228.0,1.0,Rest
263224.53125,274937.46875,717175.0625,643749.875,717195.875,225478.328125,326256.71875,235591.515625,0.00439453125,0.94921875,0.233154296875,-3.173827886581421,1.4648436307907104,0.3967284858226776,60.0,229.0,1.0,Rest
263178.9375,274853.25,717166.125,643515.1875,717187.3125,225438.90625,325973.9375,235561.375,0.00341796875,0.951416015625,0.24072265625,-2.532958745956421,1.0986326932907104,0.9155272841453552,60.0,230.0,1.0,Rest
263009.9375,274600.125,717153.25,643129.8125,717173.8125,225292.09375,325508.90625,235381.40625,0.00830078125,0.9541015625,0.243896484375,-2.532958745956421,0.6713866591453552,1.3427733182907104,60.0,231.0,1.0,Rest
262903.8125,274492.03125,717138.9375,642827.8125,717159.625,225230.578125,325069.40625,235296.375,0.0087890625,0.953369140625,0.2431640625,-2.410888433456421,0.6408690810203552,1.8005369901657104,60.0,232.0,1.0,Rest
262943.15625,274628.125,717122.3125,642711.3125,717143.4375,225300.671875,324807.53125,235392.765625,0.00732421875,0.953857421875,0.241943359375,-2.075195074081421,0.6713866591453552,2.288818120956421,60.0,233.0,1.0,Rest
263014.25,274773.84375,717105.0625,642626.25,717125.6875,225369.078125,324641.03125,235511.21875,0.00634765625,0.958984375,0.24072265625,-1.5258787870407104,0.7019042372703552,2.746581792831421,60.0,234.0,1.0,Rest
262959.25,274680.15625,717088.5,642381.9375,717109.5625,225308.1875,324368.1875,235470.546875,0.0048828125,0.96044921875,0.240234375,-1.3122557401657104,0.5798339247703552,3.082275152206421,60.0,235.0,1.0,Rest
262815.3125,274422.21875,717080.125,642017.75,717101.3125,225169.078125,323978.4375,235315.328125,0.005859375,0.9638671875,0.240478515625,-1.0986326932907104,0.6103515028953552,3.448486089706421,60.0,236.0,1.0,Rest
262740.125,274323.40625,717070.9375,641732.3125,717091.75,225103.625,323611.34375,235241.03125,0.004150390625,0.96484375,0.239990234375,-0.7019042372703552,0.4577636420726776,3.845214605331421,60.0,237.0,1.0,Rest
262809.9375,274468.4375,717057.125,641625.875,717078.0625,225172.015625,323388.0,235332.59375,0.002197265625,0.9677734375,0.2412109375,-0.8544921278953552,0.3662109076976776,4.211425304412842,60.0,238.0,1.0,Rest
262904.625,274624.375,717044.625,641551.25,717065.4375,225252.21875,323240.75,235454.09375,0.003173828125,0.96826171875,0.2392578125,-1.0681151151657104,0.0915527269244194,4.486083507537842,60.0,239.0,1.0,Rest
262857.5,274537.90625,717035.125,641312.0,717055.875,225193.203125,322989.15625,235410.1875,0.005615234375,0.967041015625,0.236083984375,-0.9765624403953552,-0.1220703050494194,4.669188976287842,60.0,240.0,1.0,Rest
262690.59375,274283.8125,717025.25,640938.0,717046.0625,225035.046875,322604.34375,235230.9375,0.004638671875,0.9677734375,0.23681640625,-0.8850097060203552,-0.2441406100988388,5.004882335662842,60.0,241.0,1.0,Rest
262592.6875,274181.625,717012.0,640649.375,717032.625,224960.03125,322255.5625,235144.65625,0.0048828125,0.96826171875,0.23779296875,-0.8544921278953552,-0.3662109076976776,5.096435070037842,60.0,242.0,1.0,Rest
262648.9375,274330.125,717000.875,640546.5625,717021.4375,225036.125,322052.53125,235246.671875,0.0078125,0.96875,0.2373046875,-0.8239745497703552,-0.4577636420726776,5.126952648162842,60.0,243.0,1.0,Rest
262720.90625,274469.6875,716988.1875,640473.5625,717008.5625,225116.859375,321884.09375,235365.046875,0.008544921875,0.968994140625,0.236572265625,-0.7934569716453552,-0.3662109076976776,5.004882335662842,60.0,244.0,1.0,Rest
262673.15625,274382.875,716978.5625,640247.0,716999.3125,225072.875,321608.8125,235323.203125,0.01171875,0.971435546875,0.23779296875,-0.7019042372703552,-0.3356933295726776,4.974364757537842,60.0,245.0,1.0,Rest
262523.65625,274133.6875,716971.25,639889.0,716991.6875,224938.40625,321211.9375,235154.484375,0.01513671875,0.9775390625,0.240478515625,-0.6713866591453552,-0.3356933295726776,5.065917491912842,60.0,246.0,1.0,Rest
262433.28125,274021.9375,716961.375,639603.125,716981.25,224876.53125,320830.96875,235068.75,0.01806640625,0.979248046875,0.237548828125,-1.0375975370407104,-0.3356933295726776,5.157470226287842,60.0,247.0,1.0,Rest
262489.4375,274152.375,716951.4375,639507.0625,716971.3125,224954.40625,320609.9375,235169.953125,0.02001953125,0.981689453125,0.237060546875,-1.3732908964157104,-0.3967284858226776,5.004882335662842,60.0,248.0,1.0,Rest
262594.9375,274317.25,716945.3125,639462.625,716965.4375,225051.5,320489.96875,235313.0,0.02099609375,0.98291015625,0.23779296875,-1.5258787870407104,-0.2746581733226776,5.004882335662842,60.0,249.0,1.0,Rest
262553.34375,274233.65625,716933.3125,639247.375,716953.625,225000.453125,320241.9375,235287.890625,0.0234375,0.984375,0.23583984375,-1.8310545682907104,0.0,4.791259288787842,60.0,250.0,1.0,Rest
262381.15625,273972.75,716919.8125,638878.0,716939.75,224839.34375,319843.03125,235102.71875,0.026611328125,0.98291015625,0.23095703125,-2.166747808456421,0.3051757514476776,4.333495616912842,60.0,251.0,1.0,Rest
262273.40625,273859.9375,716911.9375,638588.625,716931.6875,224758.78125,319500.59375,234997.671875,0.031005859375,0.98046875,0.23095703125,-2.166747808456421,0.6408690810203552,3.997802495956421,60.0,252.0,1.0,Rest
262324.28125,274005.9375,716900.75,638494.9375,716920.5,224831.640625,319312.65625,235094.671875,0.0302734375,0.9794921875,0.2333984375,-2.227782964706421,0.9765624403953552,3.631591558456421,60.0,253.0,1.0,Rest
262414.9375,274176.625,716890.1875,638446.5625,716910.4375,224926.234375,319157.28125,235229.140625,0.03173828125,0.982421875,0.239501953125,-2.563476324081421,1.1596678495407104,3.326415777206421,60.0,254.0,1.0,Rest
262384.625,274121.71875,716883.75,638247.5,716903.6875,224901.65625,318876.71875,235204.375,0.03466796875,0.985595703125,0.244140625,-3.234863042831421,1.4343260526657104,3.082275152206421,60.0,255.0,1.0,Rest
262227.28125,273871.125,716875.3125,637898.3125,716895.125,224758.875,318479.28125,235041.5625,0.037109375,0.9833984375,0.245361328125,-3.814697027206421,1.6479490995407104,3.204345464706421,60.0,256.0,1.0,Rest
262128.125,273755.40625,716869.125,637623.625,716889.125,224683.859375,318161.375,234963.25,0.04150390625,0.98095703125,0.243896484375,-4.882812023162842,2.044677495956421,2.960204839706421,60.0,257.0,1.0,Rest
262180.0,273883.4375,716860.1875,637525.0,716880.0,224742.234375,318004.1875,235048.28125,0.04345703125,0.975341796875,0.239013671875,-5.432128429412842,2.563476324081421,2.410888433456421,60.0,258.0,1.0,Rest
262276.8125,274040.4375,716850.625,637477.4375,716870.1875,224831.46875,317866.0625,235177.203125,0.0419921875,0.973388671875,0.237060546875,-5.462646007537842,3.265380620956421,1.7700194120407104,60.0,259.0,1.0,Rest
262242.40625,273959.8125,716844.0,637274.8125,716863.6875,224793.65625,317610.0,235148.40625,0.04052734375,0.97412109375,0.239013671875,-5.523681163787842,3.753661870956421,1.1291502714157104,60.0,260.0,1.0,Rest
262085.484375,273700.96875,716834.4375,636927.9375,716854.0,224645.59375,317245.375,234976.65625,0.03857421875,0.974853515625,0.239990234375,-5.981444835662842,4.211425304412842,0.3356933295726776,60.0,261.0,1.0,Rest
261999.296875,273589.3125,716828.0,636665.3125,716847.6875,224578.625,316943.1875,234898.0625,0.036865234375,0.97412109375,0.24267578125,-6.469726085662842,4.577636241912842,-0.4577636420726776,60.0,262.0,1.0,Rest
262061.609375,273722.875,716820.0625,636584.875,716839.1875,224651.046875,316793.78125,235002.59375,0.032958984375,0.97216796875,0.242431640625,-6.896972179412842,4.974364757537842,-0.8850097060203552,60.0,263.0,1.0,Rest
262157.53125,273879.6875,716811.625,636545.875,716831.3125,224732.9375,316694.71875,235147.15625,0.031005859375,0.971923828125,0.242919921875,-7.354735851287842,5.310058116912842,-1.5258787870407104,60.0,264.0,1.0,Rest
262118.296875,273805.5,716801.25,636341.75,716820.6875,224686.90625,316473.96875,235113.09375,0.03125,0.969482421875,0.24267578125,-7.781981945037842,5.645751476287842,-2.197265386581421,60.0,265.0,1.0,Rest
261952.625,273552.65625,716791.75,635985.125,716811.1875,224529.90625,316104.8125,234917.03125,0.030517578125,0.964599609375,0.239501953125,-8.056639671325684,5.920409679412842,-2.777099370956421,60.0,266.0,1.0,Rest
261847.84375,273438.125,716784.6875,635712.25,716804.5,224449.796875,315784.46875,234817.6875,0.026611328125,0.95947265625,0.2373046875,-8.239745140075684,6.225585460662842,-3.601073980331421,60.0,267.0,1.0,Rest
261911.3125,273585.90625,716781.6875,635644.5625,716801.25,224533.46875,315639.28125,234931.78125,0.024169921875,0.956787109375,0.238525390625,-8.239745140075684,6.317138195037842,-4.241942882537842,60.0,268.0,1.0,Rest
262001.890625,273745.84375,716776.5,635610.625,716796.1875,224624.84375,315527.78125,235072.765625,0.02197265625,0.953369140625,0.240478515625,-8.270262718200684,6.378173351287842,-4.791259288787842,60.0,269.0,1.0,Rest
261954.140625,273659.46875,716764.0,635412.3125,716783.3125,224580.140625,315268.59375,235037.359375,0.0234375,0.949951171875,0.244140625,-8.422850608825684,6.652831554412842,-5.126952648162842,60.0,270.0,1.0,Rest
261800.984375,273414.40625,716756.625,635078.5625,716775.625,224436.203125,314910.0625,234868.65625,0.022705078125,0.94384765625,0.244140625,-8.453368186950684,7.049560070037842,-5.432128429412842,60.0,271.0,1.0,Rest
261712.390625,273300.96875,716752.375,634819.4375,716771.5,224355.5625,314640.5,234789.625,0.019775390625,0.942626953125,0.243896484375,-8.209227561950684,7.324218273162842,-5.828856945037842,60.0,272.0,1.0,Rest
261780.515625,273434.53125,716747.25,634743.8125,716766.3125,224422.078125,314531.15625,234890.5625,0.017822265625,0.93994140625,0.2421875,-7.812499523162842,7.324218273162842,-6.256103038787842,60.0,273.0,1.0,Rest
261870.28125,273583.40625,716738.5,634709.8125,716757.375,224509.25,314441.5,235022.4375,0.01513671875,0.94140625,0.244873046875,-7.476806163787842,7.263183116912842,-6.469726085662842,60.0,274.0,1.0,Rest
261841.84375,273513.46875,716731.0625,634527.0625,716750.1875,224477.5,314222.71875,235004.640625,0.013427734375,0.94287109375,0.2421875,-7.080077648162842,7.263183116912842,-6.683349132537842,60.0,275.0,1.0,Rest
261694.5,273270.21875,716725.625,634194.0625,716744.8125,224329.984375,313900.3125,234841.390625,0.009765625,0.942626953125,0.242431640625,-6.805419445037842,7.324218273162842,-7.019042491912842,60.0,276.0,1.0,Rest
261601.796875,273157.46875,716721.75,633932.5,716740.1875,224248.71875,313644.25,234756.265625,0.00732421875,0.946533203125,0.242919921875,-6.256103038787842,7.263183116912842,-7.141112804412842,60.0,277.0,1.0,Rest
261665.171875,273295.5,716718.375,633860.875,716737.0,224328.28125,313532.5,234861.765625,0.004638671875,0.95068359375,0.247802734375,-5.828856945037842,7.263183116912842,-7.202147960662842,60.0,278.0,1.0,Rest
261764.6875,273457.25,716709.0625,633832.1875,716728.125,224422.078125,313455.4375,234999.8125,0.00244140625,0.956298828125,0.2490234375,-5.493163585662842,7.171630382537842,-7.232665538787842,60.0,279.0,1.0,Rest
261739.296875,273398.25,716700.875,633645.875,716720.0,224385.78125,313269.8125,234970.046875,-0.001220703125,0.960693359375,0.2509765625,-5.249022960662842,6.896972179412842,-7.141112804412842,60.0,280.0,1.0,Rest
261587.75,273155.75,716692.6875,633314.25,716711.375,224234.953125,312950.71875,234802.046875,-0.005126953125,0.967529296875,0.25537109375,-5.126952648162842,6.561278820037842,-6.988524913787842,60.0,281.0,1.0,Rest
261485.375,273045.875,716684.875,633054.4375,716703.0,224157.78125,312665.0625,234707.71875,-0.00634765625,0.969970703125,0.259765625,-5.187987804412842,6.164550304412842,-6.866454601287842,60.0,282.0,1.0,Rest
261546.265625,273192.34375,716682.0625,632986.3125,716700.125,224243.796875,312540.25,234799.71875,-0.00732421875,0.972412109375,0.26025390625,-5.371093273162842,5.676269054412842,-6.591796398162842,60.0,283.0,1.0,Rest
261652.84375,273369.0,716678.875,632970.875,716696.9375,224346.078125,312485.8125,234937.046875,-0.00830078125,0.972900390625,0.26123046875,-5.554198741912842,5.340575695037842,-6.500243663787842,60.0,284.0,1.0,Rest
261620.390625,273302.65625,716670.0,632792.9375,716688.5,224304.59375,312312.4375,234912.640625,-0.011474609375,0.9697265625,0.260498046875,-5.767821788787842,4.882812023162842,-6.103515148162842,60.0,285.0,1.0,Rest
261471.53125,273053.125,716665.25,632467.3125,716683.6875,224159.390625,312003.375,234744.015625,-0.015625,0.967529296875,0.26123046875,-5.798339366912842,4.516601085662842,-5.950927257537842,60.0,286.0,1.0,Rest
261374.0625,272924.90625,716659.1875,632206.0,716677.3125,224075.890625,311711.71875,234645.5,-0.017333984375,0.96337890625,0.2626953125,-5.981444835662842,4.089354991912842,-5.645751476287842,60.0,287.0,1.0,Rest
261441.75,273057.3125,716656.75,632136.5,716675.1875,224144.5625,311592.90625,234739.28125,-0.018798828125,0.959716796875,0.2607421875,-5.950927257537842,3.570556402206421,-5.310058116912842,60.0,288.0,1.0,Rest
261553.328125,273226.3125,716651.5,632119.8125,716669.9375,224240.125,311562.21875,234882.328125,-0.0185546875,0.958984375,0.25927734375,-5.950927257537842,3.051757574081421,-5.218505382537842,60.0,289.0,1.0,Rest
261530.359375,273163.8125,716646.5,631945.8125,716664.5625,224204.453125,311420.0625,234867.046875,-0.020263671875,0.957275390625,0.261962890625,-5.615233898162842,2.441406011581421,-4.852294445037842,60.0,290.0,1.0,Rest
261369.59375,272905.96875,716639.6875,631615.625,716657.5625,224049.34375,311113.84375,234694.578125,-0.02294921875,0.9541015625,0.260986328125,-5.523681163787842,2.014159917831421,-4.608153820037842,60.0,291.0,1.0,Rest
261264.09375,272784.71875,716633.0,631356.6875,716651.3125,223965.203125,310840.0,234599.890625,-0.024658203125,0.953857421875,0.261962890625,-5.249022960662842,1.4343260526657104,-4.180907726287842,60.0,292.0,1.0,Rest
261320.78125,272927.6875,716630.9375,631293.5625,716649.0625,224039.234375,310741.375,234700.390625,-0.0263671875,0.955078125,0.259765625,-5.004882335662842,0.8544921278953552,-3.967284917831421,60.0,293.0,1.0,Rest
261414.921875,273100.875,716623.6875,631272.375,716641.9375,224131.953125,310701.4375,234839.6875,-0.027587890625,0.956298828125,0.26220703125,-4.608153820037842,0.3051757514476776,-3.601073980331421,60.0,294.0,1.0,Rest
261395.34375,273052.9375,716620.9375,631103.6875,716639.5,224107.359375,310552.375,234829.21875,-0.029296875,0.95947265625,0.262939453125,-4.425048351287842,-0.4577636420726776,-3.387450933456421,60.0,295.0,1.0,Rest
261235.40625,272796.875,716610.625,630773.875,716629.25,223952.953125,310232.21875,234654.796875,-0.028076171875,0.96142578125,0.26220703125,-4.211425304412842,-1.0681151151657104,-2.929687261581421,60.0,296.0,1.0,Rest
261140.625,272671.8125,716604.75,630515.8125,716622.8125,223871.15625,309946.5625,234550.015625,-0.028076171875,0.964599609375,0.26513671875,-4.211425304412842,-1.6479490995407104,-2.624511480331421,60.0,297.0,1.0,Rest
261199.8125,272802.875,716600.8125,630446.25,716619.0625,223941.0625,309831.9375,234632.625,-0.027587890625,0.96337890625,0.267333984375,-4.364013195037842,-2.197265386581421,-2.227782964706421,60.0,298.0,1.0,Rest
261300.75,272971.5,716596.0,630425.25,716614.0625,224031.90625,309785.90625,234759.578125,-0.02783203125,0.96337890625,0.2685546875,-4.425048351287842,-2.838134527206421,-1.8310545682907104,60.0,299.0,1.0,Rest
261287.34375,272922.5,716594.125,630269.0625,716611.875,224010.359375,309638.46875,234751.171875,-0.0263671875,0.96337890625,0.266845703125,-4.547118663787842,-3.417968511581421,-1.3122557401657104,60.0,300.0,1.0,Rest
261138.390625,272674.5625,716588.125,629949.0,716605.8125,223864.890625,309335.0,234580.9375,-0.025390625,0.959228515625,0.266357421875,-4.730224132537842,-4.028319835662842,-0.8850097060203552,60.0,301.0,1.0,Rest
261035.84375,272542.96875,716583.125,629692.125,716600.625,223780.140625,309067.96875,234479.015625,-0.025390625,0.9560546875,0.263916015625,-4.669188976287842,-4.608153820037842,-0.4577636420726776,60.0,302.0,1.0,Rest
261097.171875,272675.46875,716581.9375,629631.25,716600.1875,223850.234375,308977.3125,234578.0,-0.022705078125,0.9521484375,0.265869140625,-4.333495616912842,-5.096435070037842,-0.0610351525247097,60.0,303.0,1.0,Rest
261197.046875,272850.875,716574.0,629621.9375,716592.0625,223942.671875,308946.09375,234715.5,-0.020263671875,0.95068359375,0.26171875,-4.058837413787842,-5.554198741912842,0.3662109076976776,60.0,304.0,1.0,Rest
261187.5625,272797.78125,716570.9375,629468.3125,716588.8125,223924.4375,308808.59375,234703.875,-0.015380859375,0.95068359375,0.25927734375,-3.662109136581421,-5.981444835662842,0.7019042372703552,60.0,305.0,1.0,Rest
261048.8125,272551.1875,716566.75,629154.9375,716584.0625,223785.859375,308518.90625,234534.984375,-0.015380859375,0.95166015625,0.260009765625,-3.356933355331421,-6.378173351287842,1.0375975370407104,60.0,306.0,1.0,Rest
260956.890625,272432.375,716563.0625,628905.6875,716580.3125,223705.75,308258.5625,234436.1875,-0.013427734375,0.9541015625,0.262939453125,-3.173827886581421,-6.774901866912842,1.3427733182907104,60.0,307.0,1.0,Rest
261007.046875,272556.65625,716558.3125,628834.0,716575.4375,223762.96875,308153.59375,234516.75,-0.010986328125,0.955322265625,0.262939453125,-3.082275152206421,-7.049560070037842,1.6784666776657104,60.0,308.0,1.0,Rest
261097.09375,272722.59375,716551.25,628819.3125,716568.625,223849.421875,308118.28125,234644.328125,-0.007568359375,0.95556640625,0.26220703125,-2.868652105331421,-7.232665538787842,1.9531248807907104,60.0,309.0,1.0,Rest
261072.234375,272671.71875,716544.125,628662.875,716561.3125,223819.5625,307968.875,234628.78125,-0.0029296875,0.957763671875,0.265380859375,-2.716064214706421,-7.354735851287842,2.319335699081421,60.0,310.0,1.0,Rest
260929.0,272436.3125,716540.1875,628355.375,716557.0625,223682.40625,307674.28125,234469.625,-0.001708984375,0.961669921875,0.2685546875,-2.807616949081421,-7.568358898162842,2.563476324081421,60.0,311.0,1.0,Rest
260826.984375,272314.34375,716534.75,628102.4375,716552.5,223599.4375,307393.0,234365.109375,0.00146484375,0.963623046875,0.270263671875,-2.838134527206421,-7.690429210662842,2.899169683456421,60.0,312.0,1.0,Rest
260885.28125,272452.5,716532.0625,628047.8125,716549.875,223673.828125,307289.90625,234470.890625,0.0029296875,0.96337890625,0.267333984375,-2.868652105331421,-7.690429210662842,3.143310308456421,60.0,313.0,1.0,Rest
260994.71875,272634.875,716529.75,628047.9375,716547.0625,223778.96875,307278.03125,234621.0,0.001953125,0.96240234375,0.26220703125,-2.899169683456421,-7.476806163787842,3.509521245956421,60.0,314.0,1.0,Rest
260977.1875,272582.9375,716523.125,627886.9375,716540.4375,223747.5,307140.96875,234588.28125,0.00048828125,0.961669921875,0.263427734375,-2.929687261581421,-7.415771007537842,3.723144292831421,60.0,315.0,1.0,Rest
260842.453125,272345.8125,716519.875,627578.1875,716537.125,223608.5625,306851.8125,234419.921875,0.001708984375,0.96240234375,0.263427734375,-2.746581792831421,-7.415771007537842,3.845214605331421,60.0,316.0,1.0,Rest
260748.75,272220.375,716515.6875,627331.75,716532.3125,223536.765625,306580.84375,234327.03125,0.002197265625,0.959716796875,0.265625,-2.838134527206421,-7.507323741912842,4.028319835662842,60.0,317.0,1.0,Rest
260810.984375,272355.21875,716515.0,627277.0625,716532.0625,223617.765625,306488.84375,234423.3125,0.000732421875,0.95849609375,0.2646484375,-2.868652105331421,-7.568358898162842,4.272460460662842,60.0,318.0,1.0,Rest
260927.484375,272539.03125,716516.3125,627285.9375,716533.5625,223736.140625,306492.0625,234580.9375,-0.000732421875,0.9580078125,0.265625,-2.899169683456421,-7.690429210662842,4.486083507537842,60.0,319.0,1.0,Rest
260910.671875,272491.5625,716512.9375,627138.375,716529.625,223718.53125,306361.4375,234574.234375,0.0029296875,0.959228515625,0.2646484375,-3.051757574081421,-7.843017101287842,4.608153820037842,60.0,320.0,1.0,Rest
260757.96875,272242.84375,716507.375,626830.8125,716524.375,223575.03125,306072.5625,234408.75,0.00341796875,0.95849609375,0.265625,-3.082275152206421,-7.934569835662842,4.669188976287842,60.0,321.0,1.0,Rest
260644.59375,272101.3125,716500.5625,626572.8125,716517.5625,223482.40625,305807.65625,234297.96875,0.004638671875,0.9580078125,0.261474609375,-2.990722417831421,-7.873534679412842,4.760741710662842,60.0,322.0,1.0,Rest
260685.453125,272216.28125,716493.8125,626507.0,716511.375,223538.640625,305712.78125,234380.765625,0.0048828125,0.957763671875,0.261474609375,-2.929687261581421,-7.598876476287842,4.730224132537842,60.0,323.0,1.0,Rest
260786.125,272390.4375,716486.875,626510.75,716503.875,223640.390625,305698.5625,234532.21875,0.00732421875,0.955810546875,0.259765625,-2.899169683456421,-7.629394054412842,4.669188976287842,60.0,324.0,1.0,Rest
260783.453125,272358.96875,716486.875,626372.4375,716503.8125,223632.4375,305575.1875,234521.75,0.0087890625,0.95556640625,0.261962890625,-2.777099370956421,-7.568358898162842,4.699706554412842,60.0,325.0,1.0,Rest
260642.546875,272118.09375,716485.8125,626070.5,716502.4375,223493.21875,305282.90625,234340.96875,0.008544921875,0.955322265625,0.261474609375,-2.746581792831421,-7.537841320037842,4.730224132537842,60.0,326.0,1.0,Rest
260538.390625,271984.1875,716479.75,625822.75,716496.3125,223407.484375,305010.65625,234233.421875,0.01025390625,0.953857421875,0.26611328125,-2.777099370956421,-7.629394054412842,4.882812023162842,60.0,327.0,1.0,Rest
260596.234375,272117.125,716479.0625,625767.1875,716496.1875,223476.59375,304923.75,234327.46875,0.011474609375,0.951171875,0.267822265625,-2.838134527206421,-7.598876476287842,4.974364757537842,60.0,328.0,1.0,Rest
260707.09375,272301.46875,716475.4375,625776.125,716492.875,223578.96875,304915.0,234474.109375,0.01318359375,0.9501953125,0.264892578125,-2.899169683456421,-7.537841320037842,5.126952648162842,60.0,329.0,1.0,Rest
260699.21875,272267.3125,716472.625,625640.9375,716489.6875,223558.671875,304798.3125,234465.15625,0.013427734375,0.94775390625,0.26123046875,-2.838134527206421,-7.507323741912842,5.065917491912842,60.0,330.0,1.0,Rest
260543.296875,272016.90625,716465.875,625336.375,716482.875,223406.40625,304521.15625,234292.515625,0.012939453125,0.9482421875,0.25927734375,-2.502441167831421,-7.415771007537842,5.096435070037842,60.0,331.0,1.0,Rest
260442.359375,271885.28125,716462.6875,625095.25,716479.5,223320.765625,304277.71875,234191.21875,0.014892578125,0.9501953125,0.256591796875,-2.197265386581421,-7.141112804412842,5.004882335662842,60.0,332.0,1.0,Rest
260497.796875,272014.125,716463.5,625047.1875,716480.4375,223391.65625,304197.15625,234280.984375,0.01416015625,0.95458984375,0.256591796875,-1.9531248807907104,-6.958007335662842,4.913329601287842,60.0,333.0,1.0,Rest
260601.0625,272191.34375,716460.0,625054.9375,716476.625,223493.40625,304180.53125,234422.515625,0.01513671875,0.958740234375,0.2607421875,-1.8310545682907104,-6.805419445037842,4.821776866912842,60.0,334.0,1.0,Rest
260588.984375,272153.15625,716453.9375,624915.75,716470.6875,223473.015625,304053.125,234414.015625,0.014892578125,0.96142578125,0.260498046875,-1.7089842557907104,-6.835937023162842,4.791259288787842,60.0,335.0,1.0,Rest
260444.5,271913.375,716449.625,624620.9375,716466.25,223334.171875,303784.28125,234251.203125,0.015625,0.965087890625,0.261962890625,-1.7700194120407104,-6.835937023162842,4.669188976287842,60.0,336.0,1.0,Rest
260342.046875,271781.03125,716446.0625,624377.125,716462.5,223252.71875,303539.65625,234151.875,0.01953125,0.966796875,0.26220703125,-1.9836424589157104,-6.683349132537842,4.425048351287842,60.0,337.0,1.0,Rest
260394.53125,271910.40625,716445.9375,624323.3125,716462.25,223327.375,303448.28125,234243.515625,0.020263671875,0.967529296875,0.262939453125,-2.075195074081421,-6.591796398162842,4.241942882537842,60.0,338.0,1.0,Rest
260496.8125,272094.15625,716441.375,624334.25,716457.75,223432.34375,303422.625,234391.578125,0.0244140625,0.96728515625,0.26171875,-2.319335699081421,-6.317138195037842,3.936767339706421,60.0,339.0,1.0,Rest
260485.8125,272065.96875,716438.6875,624206.625,716455.0625,223426.53125,303305.5,234401.421875,0.029296875,0.96630859375,0.260498046875,-2.532958745956421,-6.072997570037842,3.570556402206421,60.0,340.0,1.0,Rest
260335.703125,271827.90625,716435.3125,623916.3125,716451.5,223298.046875,303048.1875,234250.40625,0.029541015625,0.9658203125,0.257080078125,-2.746581792831421,-5.706786632537842,3.417968511581421,60.0,341.0,1.0,Rest
260226.078125,271695.21875,716433.4375,623672.25,716449.625,223219.109375,302816.1875,234142.578125,0.030029296875,0.9638671875,0.255859375,-2.960204839706421,-5.462646007537842,3.204345464706421,60.0,342.0,1.0,Rest
260271.59375,271819.03125,716431.5,623616.0,716447.5625,223299.65625,302689.5625,234223.3125,0.031005859375,0.96484375,0.254638671875,-3.234863042831421,-5.096435070037842,3.021239995956421,60.0,343.0,1.0,Rest
260376.28125,272000.09375,716429.5,623635.0,716445.5,223427.6875,302627.625,234374.6875,0.031982421875,0.963134765625,0.254638671875,-3.295898199081421,-4.730224132537842,2.655029058456421,60.0,344.0,1.0,Rest
260370.125,271967.1875,716424.75,623513.375,716440.875,223430.546875,302486.875,234376.921875,0.031494140625,0.963623046875,0.25390625,-3.631591558456421,-4.364013195037842,2.319335699081421,60.0,345.0,1.0,Rest
260231.265625,271727.40625,716420.5,623228.0625,716436.8125,223287.5,302226.90625,234216.4375,0.028076171875,0.959228515625,0.258544921875,-3.631591558456421,-3.845214605331421,1.9836424589157104,60.0,346.0,1.0,Rest
260132.828125,271594.8125,716420.75,622991.3125,716436.8125,223193.890625,302023.75,234111.5625,0.02685546875,0.962158203125,0.256103515625,-3.601073980331421,-3.570556402206421,1.7089842557907104,60.0,347.0,1.0,Rest
260178.96875,271709.96875,716418.25,622934.75,716434.3125,223253.078125,301951.34375,234187.375,0.026611328125,0.963623046875,0.25830078125,-3.601073980331421,-3.509521245956421,1.4038084745407104,60.0,348.0,1.0,Rest
260289.75,271897.71875,716413.3125,622952.875,716429.25,223366.359375,301933.5625,234332.296875,0.027587890625,0.9658203125,0.26220703125,-4.089354991912842,-3.509521245956421,1.0070799589157104,60.0,349.0,1.0,Rest
260284.203125,271869.5625,716411.4375,622829.6875,716427.4375,223359.5625,301814.1875,234331.765625,0.027587890625,0.964599609375,0.260986328125,-4.547118663787842,-3.417968511581421,0.7019042372703552,60.0,350.0,1.0,Rest
260144.1875,271639.25,716411.0625,622550.625,716427.0625,223226.25,301567.78125,234174.5,0.028564453125,0.961669921875,0.26025390625,-4.730224132537842,-3.326415777206421,0.4577636420726776,60.0,351.0,1.0,Rest
260036.90625,271513.0,716408.75,622316.875,716425.125,223138.1875,301337.125,234070.515625,0.029541015625,0.963623046875,0.259521484375,-5.096435070037842,-3.082275152206421,0.2441406100988388,60.0,352.0,1.0,Rest
260078.203125,271644.25,716406.0,622266.6875,716422.0,223203.640625,301249.84375,234155.359375,0.029541015625,0.964111328125,0.25732421875,-5.523681163787842,-2.807616949081421,-0.0915527269244194,60.0,353.0,1.0,Rest
260168.6875,271812.875,716399.3125,622278.875,716415.5625,223304.75,301233.65625,234294.21875,0.0283203125,0.9638671875,0.257568359375,-5.615233898162842,-2.532958745956421,-0.3967284858226776,60.0,354.0,1.0,Rest
260160.546875,271781.5,716395.625,622161.75,716411.8125,223291.53125,301128.78125,234297.171875,0.02734375,0.966064453125,0.254150390625,-5.645751476287842,-2.319335699081421,-0.6713866591453552,60.0,355.0,1.0,Rest
260030.015625,271552.34375,716392.3125,621890.1875,716408.375,223161.078125,300873.1875,234140.609375,0.029541015625,0.968505859375,0.2509765625,-6.072997570037842,-1.8920897245407104,-1.1291502714157104,60.0,356.0,1.0,Rest
259934.703125,271420.65625,716392.125,621660.9375,716407.75,223082.40625,300627.65625,234036.90625,0.02587890625,0.96826171875,0.255615234375,-6.042479991912842,-1.6479490995407104,-1.3122557401657104,60.0,357.0,1.0,Rest
259993.53125,271547.5,716392.125,621617.625,716407.4375,223154.1875,300532.90625,234127.109375,0.0234375,0.9716796875,0.2607421875,-6.134032726287842,-1.4953612089157104,-1.4648436307907104,60.0,358.0,1.0,Rest
260097.25,271728.21875,716388.0,621634.5,716403.5,223268.546875,300504.5625,234267.75,0.023193359375,0.9736328125,0.265380859375,-6.713866710662842,-1.6479490995407104,-1.7700194120407104,60.0,359.0,1.0,Rest
260088.3125,271698.25,716383.8125,621512.75,716399.4375,223266.046875,300375.8125,234260.59375,0.022705078125,0.97607421875,0.266357421875,-7.293700695037842,-1.7395018339157104,-2.044677495956421,60.0,360.0,1.0,Rest
259951.25,271468.75,716381.875,621237.0625,716397.9375,223135.515625,300128.0625,234106.90625,0.02099609375,0.98095703125,0.274658203125,-7.568358898162842,-1.8310545682907104,-1.8920897245407104,60.0,361.0,1.0,Rest
259849.765625,271335.78125,716379.5,621004.625,716395.6875,223055.75,299890.0625,234006.59375,0.021240234375,0.982421875,0.2744140625,-8.331297874450684,-1.7700194120407104,-1.9531248807907104,60.0,362.0,1.0,Rest
259892.15625,271452.03125,716380.0,620951.4375,716395.875,223131.9375,299791.4375,234091.265625,0.021728515625,0.978515625,0.27490234375,-9.338377952575684,-1.7395018339157104,-1.8615721464157104,60.0,363.0,1.0,Rest
260002.65625,271644.6875,716378.1875,620975.0625,716393.75,223258.265625,299789.03125,234244.328125,0.021728515625,0.973388671875,0.275390625,-9.826659202575684,-1.5258787870407104,-1.6784666776657104,60.0,364.0,1.0,Rest
260004.625,271628.15625,716375.4375,620861.8125,716391.125,223255.046875,299712.40625,234250.578125,0.0166015625,0.972412109375,0.277587890625,-10.284422874450684,-1.5258787870407104,-1.5258787870407104,60.0,365.0,1.0,Rest
259866.578125,271396.5,716373.5625,620579.125,716389.1875,223120.75,299491.3125,234085.890625,0.016845703125,0.96923828125,0.271728515625,-10.894774436950684,-1.5563963651657104,-1.5258787870407104,60.0,366.0,1.0,Rest
259761.078125,271254.625,716371.375,620344.375,716387.0625,223046.453125,299267.6875,233979.40625,0.016845703125,0.964111328125,0.27001953125,-11.169432640075684,-1.4953612089157104,-1.6784666776657104,60.0,367.0,1.0,Rest
259806.9375,271373.25,716369.9375,620298.125,716385.625,223126.390625,299185.0,234074.546875,0.01611328125,0.96044921875,0.271728515625,-11.322020530700684,-1.4648436307907104,-1.7700194120407104,60.0,368.0,1.0,Rest
259908.0625,271562.34375,716367.8125,620320.1875,716383.125,223242.890625,299192.25,234231.90625,0.015380859375,0.9580078125,0.268310546875,-11.505125999450684,-1.4648436307907104,-1.8920897245407104,60.0,369.0,1.0,Rest
259889.203125,271527.3125,716360.0625,620195.5,716375.875,223221.609375,299081.46875,234210.078125,0.016357421875,0.95361328125,0.26806640625,-11.444090843200684,-1.4648436307907104,-2.105712652206421,60.0,370.0,1.0,Rest
259753.65625,271286.09375,716357.1875,619920.375,716373.0,223087.765625,298839.25,234045.84375,0.015625,0.950927734375,0.276611328125,-11.077879905700684,-1.6174315214157104,-1.9531248807907104,60.0,371.0,1.0,Rest
259653.25,271143.65625,716356.4375,619685.625,716372.5625,223003.90625,298603.84375,233939.890625,0.015380859375,0.950927734375,0.28076171875,-11.322020530700684,-1.8920897245407104,-1.9531248807907104,60.0,372.0,1.0,Rest
259709.84375,271259.4375,716357.0,619634.625,716373.1875,223075.6875,298507.125,234016.78125,0.017822265625,0.94287109375,0.281005859375,-11.779784202575684,-1.9226073026657104,-2.014159917831421,60.0,373.0,1.0,Rest
259844.671875,271458.65625,716356.0,619669.5,716371.75,223200.0625,298518.28125,234173.515625,0.01904296875,0.941650390625,0.28173828125,-11.596678733825684,-1.8005369901657104,-1.8615721464157104,60.0,374.0,1.0,Rest
259855.5,271444.15625,716354.0625,619566.4375,716369.3125,223189.421875,298461.0625,234185.578125,0.016845703125,0.93994140625,0.283203125,-11.199950218200684,-1.7089842557907104,-1.8615721464157104,60.0,375.0,1.0,Rest
259717.625,271214.84375,716350.75,619295.625,716366.125,223047.984375,298251.6875,234027.328125,0.015869140625,0.9423828125,0.28076171875,-11.016844749450684,-1.6479490995407104,-1.8615721464157104,60.0,376.0,1.0,Rest
259607.390625,271074.8125,716348.9375,619064.125,716364.3125,222966.796875,298029.21875,233916.828125,0.014404296875,0.94140625,0.28173828125,-10.467528343200684,-1.8310545682907104,-1.8920897245407104,60.0,377.0,1.0,Rest
259649.59375,271188.53125,716350.8125,619021.3125,716366.125,223041.28125,297947.34375,233997.109375,0.013671875,0.943603515625,0.28173828125,-10.375975608825684,-1.8310545682907104,-1.9226073026657104,60.0,378.0,1.0,Rest
259757.59375,271377.8125,716349.0625,619054.3125,716364.5625,223156.875,297958.6875,234148.21875,0.014404296875,0.947998046875,0.282470703125,-10.253905296325684,-2.014159917831421,-1.7700194120407104,60.0,379.0,1.0,Rest
259756.25,271362.625,716343.9375,618949.4375,716359.5,223145.171875,297872.9375,234150.53125,0.01416015625,0.953369140625,0.286376953125,-10.192870140075684,-2.166747808456421,-1.7395018339157104,60.0,380.0,1.0,Rest
259621.96875,271131.78125,716338.0625,618684.0625,716353.625,223003.8125,297634.40625,233989.6875,0.01318359375,0.956298828125,0.28662109375,-10.162352561950684,-2.227782964706421,-1.5869139432907104,60.0,381.0,1.0,Rest
259529.78125,270997.125,716338.8125,618461.0,716354.3125,222921.203125,297419.3125,233887.6875,0.011962890625,0.959716796875,0.28857421875,-9.979247093200684,-2.319335699081421,-1.7395018339157104,60.0,382.0,1.0,Rest
259578.328125,271106.5625,716336.0,618406.4375,716351.25,222975.375,297336.5,233957.59375,0.013671875,0.96484375,0.2900390625,-10.162352561950684,-2.380370855331421,-1.6784666776657104,60.0,383.0,1.0,Rest
259693.484375,271298.59375,716329.625,618438.4375,716345.5625,223085.984375,297351.0,234113.703125,0.0146484375,0.96484375,0.293701171875,-10.437010765075684,-2.380370855331421,-1.8310545682907104,60.0,384.0,1.0,Rest
259690.890625,271281.34375,716325.6875,618335.0,716340.875,223078.375,297268.8125,234125.140625,0.016845703125,0.9677734375,0.29345703125,-10.589598655700684,-2.410888433456421,-1.7700194120407104,60.0,385.0,1.0,Rest
259551.421875,271054.96875,716323.75,618056.5,716338.375,222939.703125,297037.0,233947.3125,0.0185546875,0.96875,0.294677734375,-10.955809593200684,-2.136230230331421,-1.9226073026657104,60.0,386.0,1.0,Rest
259449.5,270916.9375,716323.5625,617825.875,716338.5,222851.90625,296822.0625,233836.359375,0.0185546875,0.971923828125,0.29443359375,-11.352538108825684,-1.9226073026657104,-2.044677495956421,60.0,387.0,1.0,Rest
259494.375,271032.71875,716323.3125,617784.1875,716338.0625,222920.484375,296762.15625,233925.328125,0.016357421875,0.972412109375,0.298095703125,-11.566161155700684,-2.014159917831421,-1.5869139432907104,60.0,388.0,1.0,Rest
259608.640625,271232.0,716321.5,617822.375,716336.3125,223045.46875,296788.4375,234093.859375,0.0166015625,0.974365234375,0.300537109375,-12.451170921325684,-1.9531248807907104,-1.3427733182907104,60.0,389.0,1.0,Rest
259615.609375,271208.3125,716320.8125,617717.6875,716335.4375,223048.78125,296718.25,234104.9375,0.01708984375,0.969970703125,0.296875,-13.366698265075684,-1.8920897245407104,-1.0681151151657104,60.0,390.0,1.0,Rest
259483.5625,270974.3125,716317.1875,617445.125,716331.9375,222905.109375,296502.875,233930.328125,0.0146484375,0.966064453125,0.301025390625,-13.671874046325684,-1.9836424589157104,-0.7324218153953552,60.0,391.0,1.0,Rest
259382.984375,270829.46875,716315.4375,617215.3125,716330.0,222814.359375,296313.4375,233824.203125,0.013671875,0.964111328125,0.30029296875,-14.129637718200684,-1.9836424589157104,-0.6408690810203552,60.0,392.0,1.0,Rest
259428.75,270936.0625,716312.3125,617166.5625,716326.9375,222877.03125,296252.28125,233904.40625,0.016845703125,0.958740234375,0.2998046875,-14.434813499450684,-1.9836424589157104,-0.8544921278953552,60.0,393.0,1.0,Rest
259547.21875,271136.15625,716311.75,617206.0625,716325.875,223000.953125,296286.15625,234067.65625,0.017333984375,0.9521484375,0.297607421875,-14.526366233825684,-1.8310545682907104,-0.9765624403953552,60.0,394.0,1.0,Rest
259555.171875,271132.21875,716311.5,617111.9375,716326.0625,223001.3125,296245.03125,234082.765625,0.01806640625,0.94970703125,0.296630859375,-14.312743186950684,-1.8615721464157104,-1.0070799589157104,60.0,395.0,1.0,Rest
259423.921875,270911.5625,716310.75,616850.125,716325.5,222864.421875,296053.4375,233930.6875,0.01416015625,0.94921875,0.297119140625,-14.312743186950684,-1.8615721464157104,-1.0375975370407104,60.0,396.0,1.0,Rest
259318.96875,270768.78125,716309.4375,616618.0625,716323.625,222773.140625,295838.59375,233816.0625,0.015625,0.947021484375,0.298583984375,-14.434813499450684,-1.8310545682907104,-1.0681151151657104,60.0,397.0,1.0,Rest
259362.765625,270875.09375,716306.6875,616566.0,716321.4375,222834.296875,295762.59375,233885.53125,0.01708984375,0.943115234375,0.301025390625,-14.434813499450684,-1.6784666776657104,-1.0681151151657104,60.0,398.0,1.0,Rest
259472.109375,271058.8125,716301.625,616595.8125,716316.5625,222935.859375,295797.90625,234033.328125,0.01708984375,0.938720703125,0.30224609375,-14.312743186950684,-1.5258787870407104,-1.2207030057907104,60.0,399.0,1.0,Rest
259485.34375,271050.78125,716301.3125,616501.75,716315.875,222926.46875,295764.28125,234045.484375,0.019775390625,0.937255859375,0.30322265625,-14.038084983825684,-1.4343260526657104,-1.2207030057907104,60.0,400.0,1.0,Rest
259366.796875,270830.65625,716299.3125,616249.0625,716314.0625,222797.640625,295568.65625,233896.984375,0.01953125,0.936279296875,0.302490234375,-13.824461936950684,-1.2207030057907104,-1.2512205839157104,60.0,401.0,1.0,Rest
259268.0,270683.5625,716298.625,616022.6875,716313.375,222710.203125,295351.3125,233782.265625,0.018798828125,0.933349609375,0.30224609375,-13.580321311950684,-1.1596678495407104,-1.3427733182907104,60.0,402.0,1.0,Rest
259316.640625,270792.1875,716297.6875,615975.5,716312.3125,222772.875,295289.71875,233855.671875,0.0166015625,0.931884765625,0.304931640625,-13.275145530700684,-1.1901854276657104,-1.3122557401657104,60.0,403.0,1.0,Rest
259431.25,270982.375,716293.875,616013.5625,716308.1875,222889.109375,295339.34375,234005.515625,0.014892578125,0.932373046875,0.305908203125,-13.031004905700684,-1.0681151151657104,-1.4343260526657104,60.0,404.0,1.0,Rest
259440.5625,270969.0625,716290.125,615924.8125,716304.25,222885.265625,295300.4375,234014.109375,0.013427734375,0.93212890625,0.307373046875,-12.634276390075684,-1.0070799589157104,-1.5869139432907104,60.0,405.0,1.0,Rest
259317.171875,270746.96875,716285.9375,615672.3125,716300.125,222753.828125,295099.8125,233863.359375,0.009765625,0.935791015625,0.30859375,-12.145995140075684,-0.9460448622703552,-1.6784666776657104,60.0,406.0,1.0,Rest
259212.484375,270601.3125,716284.125,615441.125,716298.625,222656.109375,294879.5,233739.796875,0.009765625,0.93701171875,0.3115234375,-11.596678733825684,-0.7934569716453552,-1.8615721464157104,60.0,407.0,1.0,Rest
259257.359375,270707.09375,716285.4375,615394.875,716300.0625,222711.546875,294820.3125,233800.6875,0.011474609375,0.9384765625,0.314697265625,-11.352538108825684,-0.8544921278953552,-2.044677495956421,60.0,408.0,1.0,Rest
259376.625,270907.28125,716287.1875,615443.9375,716301.8125,222834.65625,294883.28125,233964.65625,0.0126953125,0.936767578125,0.31982421875,-11.169432640075684,-0.7629393935203552,-2.105712652206421,60.0,409.0,1.0,Rest
259385.5625,270913.96875,716282.8125,615356.9375,716297.5625,222836.0,294847.59375,233978.78125,0.014404296875,0.935302734375,0.32080078125,-10.986327171325684,-0.5798339247703552,-2.044677495956421,60.0,410.0,1.0,Rest
259258.609375,270691.34375,716279.9375,615105.5625,716294.6875,222706.09375,294651.34375,233831.359375,0.015625,0.935546875,0.320068359375,-10.620116233825684,-0.4577636420726776,-2.105712652206421,60.0,411.0,1.0,Rest
259150.875,270529.96875,716281.1875,614872.625,716295.5625,222610.15625,294450.8125,233713.78125,0.011474609375,0.935302734375,0.318603515625,-10.284422874450684,-0.4272460639476776,-1.9836424589157104,60.0,412.0,1.0,Rest
259195.84375,270632.625,716280.625,614819.8125,716295.125,222662.1875,294393.21875,233782.984375,0.009521484375,0.93017578125,0.3154296875,-10.101317405700684,-0.4882812201976776,-1.9836424589157104,60.0,413.0,1.0,Rest
259321.734375,270831.4375,716278.5,614864.25,716293.1875,222783.78125,294451.25,233955.09375,0.007568359375,0.924560546875,0.3154296875,-9.765624046325684,-0.5187987685203552,-2.075195074081421,60.0,414.0,1.0,Rest
259342.5625,270832.34375,716276.375,614776.375,716290.5625,222790.484375,294418.34375,233972.265625,0.0087890625,0.919677734375,0.314697265625,-9.033202171325684,-0.4882812201976776,-2.044677495956421,60.0,415.0,1.0,Rest
259221.78125,270612.84375,716273.1875,614522.6875,716287.375,222661.828125,294222.65625,233815.890625,0.009521484375,0.913330078125,0.319091796875,-8.331297874450684,-0.3662109076976776,-2.197265386581421,60.0,416.0,1.0,Rest
259112.875,270457.375,716271.5,614290.0,716285.4375,222569.03125,294029.96875,233691.796875,0.0107421875,0.909912109375,0.319091796875,-7.598876476287842,-0.3967284858226776,-2.258300542831421,60.0,417.0,1.0,Rest
259145.25,270554.75,716272.6875,614238.3125,716286.375,222626.875,294002.25,233757.5,0.008056640625,0.909912109375,0.322021484375,-6.805419445037842,-0.3051757514476776,-2.288818120956421,60.0,418.0,1.0,Rest
259252.796875,270748.84375,716272.875,614282.5625,716287.0,222757.140625,294076.65625,233918.53125,0.009765625,0.909912109375,0.32373046875,-6.225585460662842,-0.3356933295726776,-2.258300542831421,60.0,419.0,1.0,Rest
259257.984375,270748.84375,716266.6875,614199.4375,716280.625,222770.1875,294034.8125,233941.5,0.007568359375,0.912353515625,0.323486328125,-5.493163585662842,-0.2441406100988388,-2.258300542831421,60.0,420.0,1.0,Rest
259133.53125,270537.125,716264.0,613962.0625,716277.875,222653.15625,293842.5625,233809.625,0.0078125,0.91259765625,0.323486328125,-4.791259288787842,-0.1831054538488388,-2.227782964706421,60.0,421.0,1.0,Rest
259026.328125,270388.25,716265.375,613744.4375,716279.5625,222564.015625,293662.6875,233707.796875,0.009765625,0.916259765625,0.322509765625,-4.150390148162842,-0.1220703050494194,-2.197265386581421,60.0,422.0,1.0,Rest
259043.234375,270473.65625,716263.75,613683.0625,716277.125,222605.234375,293619.59375,233752.40625,0.009765625,0.923095703125,0.3251953125,-3.509521245956421,-0.1525878757238388,-2.197265386581421,60.0,423.0,1.0,Rest
259151.140625,270675.96875,716263.3125,613724.75,716276.6875,222723.703125,293663.40625,233901.546875,0.009521484375,0.930908203125,0.327880859375,-3.082275152206421,-0.1831054538488388,-2.075195074081421,60.0,424.0,1.0,Rest
259164.828125,270670.34375,716259.25,613646.25,716272.5,222737.828125,293603.0625,233921.203125,0.009765625,0.93603515625,0.33056640625,-2.838134527206421,-0.1831054538488388,-1.9226073026657104,60.0,425.0,1.0,Rest
259042.421875,270452.1875,716253.4375,613403.5,716267.3125,222612.921875,293393.125,233774.84375,0.0087890625,0.9384765625,0.330322265625,-2.624511480331421,-0.2441406100988388,-1.7395018339157104,60.0,426.0,1.0,Rest
258932.984375,270298.40625,716252.625,613173.625,716266.5,222509.5625,293195.4375,233649.765625,0.009521484375,0.9423828125,0.333740234375,-2.502441167831421,-0.2136230319738388,-1.6479490995407104,60.0,427.0,1.0,Rest
258968.3125,270396.9375,716253.9375,613124.75,716267.5625,222555.25,293154.84375,233709.140625,0.0078125,0.942626953125,0.3359375,-2.380370855331421,-0.1220703050494194,-1.4343260526657104,60.0,428.0,1.0,Rest
259085.4375,270596.84375,716252.9375,613172.5625,716266.8125,222675.234375,293216.1875,233861.84375,0.009033203125,0.942626953125,0.33154296875,-2.319335699081421,-0.03051757626235485,-1.3732908964157104,60.0,429.0,1.0,Rest
259106.171875,270609.28125,716253.125,613100.3125,716267.125,222692.140625,293195.90625,233886.25,0.00537109375,0.941162109375,0.33349609375,-2.014159917831421,0.0915527269244194,-1.1596678495407104,60.0,430.0,1.0,Rest
258984.671875,270398.53125,716250.875,612858.875,716264.1875,222566.4375,293018.78125,233738.546875,0.00390625,0.94287109375,0.3359375,-1.6479490995407104,0.0915527269244194,-0.9460448622703552,60.0,431.0,1.0,Rest
258873.984375,270244.125,716251.9375,612634.0,716265.8125,222470.859375,292825.03125,233609.171875,0.001708984375,0.94287109375,0.335693359375,-1.5563963651657104,-0.03051757626235485,-0.7629393935203552,60.0,432.0,1.0,Rest
258900.359375,270333.09375,716249.4375,612580.8125,716263.375,222516.640625,292758.25,233661.390625,0.00341796875,0.942626953125,0.334716796875,-1.6174315214157104,-0.2136230319738388,-0.4272460639476776,60.0,433.0,1.0,Rest
259005.671875,270522.5625,716244.625,612618.0,716258.1875,222624.546875,292802.15625,233801.21875,0.00341796875,0.9404296875,0.334716796875,-1.4953612089157104,-0.3051757514476776,-0.3356933295726776,60.0,434.0,1.0,Rest
259028.125,270527.46875,716241.0625,612544.9375,716254.5625,222628.125,292788.8125,233828.765625,0.00244140625,0.93896484375,0.33154296875,-1.3732908964157104,-0.3662109076976776,-0.1220703050494194,60.0,435.0,1.0,Rest
258911.53125,270308.0625,716238.875,612305.25,716252.3125,222497.59375,292617.4375,233689.5625,0.001953125,0.939697265625,0.33056640625,-1.1901854276657104,-0.3967284858226776,0.0,60.0,436.0,1.0,Rest
258810.765625,270158.75,716236.5,612083.5,716249.6875,222405.765625,292417.96875,233577.4375,0.00146484375,0.9384765625,0.330810546875,-0.8544921278953552,-0.4882812201976776,0.0610351525247097,60.0,437.0,1.0,Rest
258843.40625,270256.375,716236.375,612035.25,716249.6875,222468.171875,292358.5,233642.609375,-0.000244140625,0.9375,0.33154296875,-0.6713866591453552,-0.6408690810203552,0.0610351525247097,60.0,438.0,1.0,Rest
258948.453125,270454.6875,716236.75,612080.1875,716249.6875,222591.921875,292420.46875,233799.703125,0.000244140625,0.938720703125,0.33251953125,-0.4272460639476776,-0.7019042372703552,0.0915527269244194,60.0,439.0,1.0,Rest
258967.40625,270481.875,716238.375,612018.25,716251.3125,222613.1875,292417.6875,233841.8125,-0.002197265625,0.9384765625,0.331787109375,-0.1220703050494194,-0.8239745497703552,0.1831054538488388,60.0,440.0,1.0,Rest
258839.734375,270268.46875,716236.5,611782.8125,716249.5,222495.625,292241.125,233706.28125,-0.0009765625,0.94287109375,0.33447265625,0.0610351525247097,-0.9155272841453552,0.1220703050494194,60.0,441.0,1.0,Rest
258706.078125,270093.5,716233.0,611549.5,716245.75,222397.625,292022.34375,233574.484375,-0.002197265625,0.943603515625,0.335693359375,0.1220703050494194,-1.1291502714157104,0.03051757626235485,60.0,442.0,1.0,Rest
258727.71875,270183.96875,716232.0,611497.875,716244.8125,222450.46875,291962.625,233635.109375,-0.00146484375,0.942138671875,0.332763671875,0.1831054538488388,-1.3427733182907104,0.1525878757238388,60.0,443.0,1.0,Rest
258841.171875,270389.59375,716232.25,611547.5,716245.4375,222573.9375,292034.3125,233797.109375,0.0,0.941162109375,0.3330078125,0.2441406100988388,-1.4648436307907104,0.1831054538488388,60.0,444.0,1.0,Rest
258867.71875,270407.21875,716231.9375,611487.9375,716244.8125,222593.609375,292032.4375,233836.546875,0.00341796875,0.940673828125,0.330322265625,0.3662109076976776,-1.5258787870407104,0.03051757626235485,60.0,445.0,1.0,Rest
258753.1875,270197.1875,716227.8125,611253.875,716240.5,222470.859375,291851.9375,233693.21875,0.00390625,0.940673828125,0.330810546875,0.4882812201976776,-1.6174315214157104,0.1220703050494194,60.0,446.0,1.0,Rest
258641.796875,270038.84375,716228.625,611031.125,716241.375,222377.875,291653.53125,233570.90625,0.00439453125,0.940673828125,0.328857421875,0.6713866591453552,-1.8005369901657104,0.0610351525247097,60.0,447.0,1.0,Rest
258667.90625,270128.09375,716230.125,610984.9375,716243.1875,222431.15625,291610.09375,233635.640625,0.0068359375,0.939697265625,0.32861328125,0.7324218153953552,-1.9226073026657104,0.0,60.0,448.0,1.0,Rest
258769.203125,270320.3125,716228.3125,611031.5625,716241.125,222543.1875,291673.1875,233777.4375,0.00732421875,0.93896484375,0.3271484375,0.8850097060203552,-1.9531248807907104,-0.03051757626235485,60.0,449.0,1.0,Rest
258779.125,270330.3125,716225.375,610965.1875,716238.4375,222551.765625,291648.15625,233799.34375,0.0078125,0.938232421875,0.3271484375,0.9765624403953552,-2.044677495956421,0.03051757626235485,60.0,450.0,1.0,Rest
258655.296875,270115.84375,716223.75,610734.6875,716236.75,222429.1875,291456.03125,233656.5625,0.006591796875,0.938232421875,0.326904296875,1.0375975370407104,-2.014159917831421,0.0610351525247097,60.0,451.0,1.0,Rest
258543.359375,269957.59375,716224.375,610509.4375,716237.1875,222325.65625,291254.34375,233525.140625,0.008056640625,0.9375,0.322509765625,1.1291502714157104,-2.136230230331421,-0.0610351525247097,60.0,452.0,1.0,Rest
258573.84375,270047.1875,716227.25,610464.0625,716240.0625,222371.171875,291207.5625,233577.53125,0.00830078125,0.93603515625,0.324951171875,1.2207030057907104,-2.258300542831421,-0.0610351525247097,60.0,453.0,1.0,Rest
258680.140625,270247.4375,716223.4375,610517.0,716235.9375,222482.125,291268.1875,233730.0625,0.00732421875,0.93359375,0.325439453125,1.3732908964157104,-2.227782964706421,-0.0610351525247097,60.0,454.0,1.0,Rest
258701.15625,270261.03125,716218.9375,610456.6875,716231.5625,222489.984375,291249.59375,233765.015625,0.010009765625,0.93408203125,0.3232421875,1.4953612089157104,-2.197265386581421,-0.0915527269244194,60.0,455.0,1.0,Rest
258575.984375,270034.5625,716212.3125,610218.1875,716224.875,222352.296875,291060.5,233611.59375,0.010498046875,0.933349609375,0.32080078125,1.7395018339157104,-2.288818120956421,-0.1525878757238388,60.0,456.0,1.0,Rest
258455.640625,269869.53125,716211.1875,609986.75,716223.875,222242.875,290861.21875,233467.828125,0.009521484375,0.932861328125,0.32421875,1.8310545682907104,-2.136230230331421,-0.2441406100988388,60.0,457.0,1.0,Rest
258485.78125,269965.53125,716213.125,609940.625,716225.8125,222290.4375,290826.15625,233523.53125,0.009521484375,0.93505859375,0.32421875,1.9531248807907104,-2.166747808456421,-0.2746581733226776,60.0,458.0,1.0,Rest
258599.0625,270165.1875,716210.8125,610001.875,716223.6875,222410.234375,290901.09375,233687.40625,0.010009765625,0.937255859375,0.32275390625,2.014159917831421,-2.136230230331421,-0.3051757514476776,60.0,459.0,1.0,Rest
258627.9375,270187.09375,716208.375,609951.3125,716220.8125,222431.515625,290892.15625,233731.390625,0.009033203125,0.936767578125,0.319580078125,2.136230230331421,-2.136230230331421,-0.2746581733226776,60.0,460.0,1.0,Rest
258524.40625,269993.15625,716207.5,609730.0625,716220.0,222320.828125,290721.71875,233601.3125,0.009765625,0.938720703125,0.318603515625,2.227782964706421,-2.136230230331421,-0.1525878757238388,60.0,461.0,1.0,Rest
258416.046875,269834.375,716208.75,609510.4375,716221.125,222224.546875,290533.1875,233479.53125,0.008544921875,0.93994140625,0.319580078125,2.227782964706421,-2.105712652206421,-0.2746581733226776,60.0,462.0,1.0,Rest
258440.8125,269914.03125,716208.5625,609459.3125,716221.125,222268.265625,290487.9375,233535.859375,0.008056640625,0.942138671875,0.317138671875,2.319335699081421,-2.075195074081421,-0.3662109076976776,60.0,463.0,1.0,Rest
258560.609375,270122.53125,716207.0625,609522.0625,716219.75,222397.8125,290563.9375,233702.609375,0.008544921875,0.943359375,0.31884765625,2.258300542831421,-2.105712652206421,-0.4272460639476776,60.0,464.0,1.0,Rest
258586.265625,270142.9375,716203.375,609463.5,716215.625,222419.71875,290546.84375,233733.359375,0.00830078125,0.945068359375,0.31787109375,2.227782964706421,-2.075195074081421,-0.4577636420726776,60.0,465.0,1.0,Rest
258475.859375,269939.875,716203.0625,609235.1875,716215.3125,222307.875,290367.59375,233587.453125,0.009033203125,0.947021484375,0.318115234375,2.136230230331421,-2.075195074081421,-0.4577636420726776,60.0,466.0,1.0,Rest
258373.484375,269785.21875,716206.0625,609017.9375,716217.8125,222220.515625,290181.0,233464.703125,0.00830078125,0.94775390625,0.318603515625,2.014159917831421,-2.014159917831421,-0.3967284858226776,60.0,467.0,1.0,Rest
258399.40625,269869.0625,716206.4375,608972.0625,716218.5625,222272.28125,290136.65625,233522.453125,0.00830078125,0.947509765625,0.3203125,1.9226073026657104,-1.9836424589157104,-0.3967284858226776,60.0,468.0,1.0,Rest
258516.625,270079.28125,716204.5625,609036.6875,716217.0625,222402.015625,290204.34375,233691.609375,0.0087890625,0.94775390625,0.320068359375,1.7089842557907104,-1.9531248807907104,-0.3051757514476776,60.0,469.0,1.0,Rest
258542.46875,270105.65625,716200.5,608986.375,716212.875,222427.140625,290188.6875,233732.734375,0.00732421875,0.947021484375,0.318115234375,1.6479490995407104,-1.9226073026657104,-0.3356933295726776,60.0,470.0,1.0,Rest
258430.703125,269888.21875,716199.125,608761.125,716211.1875,222312.34375,290019.96875,233587.09375,0.0068359375,0.94580078125,0.317626953125,1.4038084745407104,-1.9226073026657104,-0.3356933295726776,60.0,471.0,1.0,Rest
258316.890625,269713.875,716199.5625,608534.875,716211.6875,222204.328125,289822.75,233453.15625,0.0087890625,0.947265625,0.3154296875,1.3427733182907104,-1.8310545682907104,-0.2746581733226776,60.0,472.0,1.0,Rest
258341.828125,269791.75,716200.6875,608486.5,716213.125,222244.84375,289770.625,233505.015625,0.010498046875,0.947998046875,0.311767578125,1.2817381620407104,-1.8310545682907104,-0.2136230319738388,60.0,473.0,1.0,Rest
258458.515625,269995.6875,716199.8125,608548.0,716212.3125,222365.625,289831.25,233660.953125,0.0126953125,0.946533203125,0.3154296875,1.0681151151657104,-1.8005369901657104,-0.2441406100988388,60.0,474.0,1.0,Rest
258491.40625,270028.84375,716199.125,608503.5,716211.5,222390.21875,289820.25,233703.59375,0.010986328125,0.94775390625,0.3173828125,0.8239745497703552,-1.8310545682907104,-0.2746581733226776,60.0,475.0,1.0,Rest
258376.4375,269819.1875,716195.875,608282.5625,716208.125,222267.09375,289643.5,233567.609375,0.01123046875,0.9482421875,0.31640625,0.6103515028953552,-1.6479490995407104,-0.3051757514476776,60.0,476.0,1.0,Rest
258256.1875,269641.1875,716190.1875,608052.4375,716202.5,222150.953125,289437.21875,233424.28125,0.01025390625,0.9482421875,0.31640625,0.4882812201976776,-1.6479490995407104,-0.1831054538488388,60.0,477.0,1.0,Rest
258273.4375,269709.9375,716186.75,607996.8125,716198.75,222178.859375,289376.96875,233467.109375,0.010009765625,0.948486328125,0.314208984375,0.3356933295726776,-1.5563963651657104,-0.2441406100988388,60.0,478.0,1.0,Rest
258395.921875,269921.09375,716188.3125,608062.3125,716200.6875,222304.828125,289451.0,233634.578125,0.009765625,0.949462890625,0.314697265625,0.1220703050494194,-1.4343260526657104,-0.1525878757238388,60.0,479.0,1.0,Rest
258424.359375,269947.75,716185.875,608007.25,716198.3125,222326.46875,289441.34375,233656.125,0.010009765625,0.949951171875,0.3154296875,-0.0915527269244194,-1.3122557401657104,-0.0610351525247097,60.0,480.0,1.0,Rest
258310.0,269741.3125,716181.9375,607781.0,716194.375,222202.546875,289267.71875,233503.671875,0.009521484375,0.946533203125,0.31494140625,-0.3356933295726776,-1.1596678495407104,-0.1220703050494194,60.0,481.0,1.0,Rest
258195.734375,269568.125,716180.875,607559.8125,716193.5625,222093.65625,289071.375,233371.0,0.009033203125,0.947998046875,0.31640625,-0.5798339247703552,-1.1291502714157104,-0.1220703050494194,60.0,482.0,1.0,Rest
258220.859375,269642.4375,716182.625,607516.25,716195.0625,222138.265625,289027.65625,233434.296875,0.0107421875,0.9482421875,0.31494140625,-0.7324218153953552,-1.1596678495407104,-0.1525878757238388,60.0,483.0,1.0,Rest
258331.28125,269850.3125,716179.8125,607573.5625,716192.3125,222256.90625,289093.0,233585.3125,0.009765625,0.948486328125,0.31396484375,-0.8544921278953552,-1.0681151151657104,-0.0610351525247097,60.0,484.0,1.0,Rest
258367.671875,269883.125,716181.0625,607531.25,716193.1875,222285.34375,289098.1875,233623.484375,0.00927734375,0.94775390625,0.31494140625,-1.0986326932907104,-0.9460448622703552,-0.1220703050494194,60.0,485.0,1.0,Rest
258263.328125,269680.5,716180.0625,607318.125,716192.0625,222169.734375,288942.4375,233496.53125,0.009033203125,0.9453125,0.3115234375,-1.1291502714157104,-0.9765624403953552,-0.0610351525247097,60.0,486.0,1.0,Rest
258150.328125,269513.9375,716179.0,607099.4375,716191.125,222065.125,288751.5625,233373.59375,0.010986328125,0.943603515625,0.3125,-1.2817381620407104,-0.8239745497703552,0.03051757626235485,60.0,487.0,1.0,Rest
258171.15625,269589.6875,716181.75,607042.5,716193.9375,222102.40625,288700.34375,233418.734375,0.01171875,0.943115234375,0.314697265625,-1.1901854276657104,-0.6713866591453552,-0.0915527269244194,60.0,488.0,1.0,Rest
258290.609375,269801.125,716184.6875,607110.0,716197.3125,222232.9375,288779.71875,233583.609375,0.011962890625,0.94287109375,0.314453125,-1.1901854276657104,-0.6103515028953552,-0.1525878757238388,60.0,489.0,1.0,Rest
258324.484375,269838.6875,716183.8125,607071.4375,716195.8125,222265.84375,288785.28125,233630.8125,0.011962890625,0.943603515625,0.318603515625,-1.2512205839157104,-0.4882812201976776,-0.1525878757238388,60.0,490.0,1.0,Rest
258217.28125,269640.625,716181.5,606859.5625,716193.375,222153.375,288624.59375,233499.921875,0.010986328125,0.943603515625,0.31494140625,-1.0681151151657104,-0.3967284858226776,-0.1525878757238388,60.0,491.0,1.0,Rest
258103.5625,269469.34375,716180.875,606641.0625,716192.6875,222047.0625,288429.25,233371.359375,0.01123046875,0.94482421875,0.3154296875,-1.0986326932907104,-0.3356933295726776,0.0,60.0,492.0,1.0,Rest
258118.671875,269533.71875,716177.5625,606587.125,716189.6875,222081.484375,288369.625,233414.625,0.013916015625,0.946044921875,0.31640625,-1.0681151151657104,-0.2746581733226776,0.0610351525247097,60.0,493.0,1.0,Rest
258226.234375,269728.875,716175.3125,606645.625,716187.5625,222199.0625,288428.96875,233562.859375,0.01318359375,0.945068359375,0.3173828125,-0.9460448622703552,-0.2136230319738388,0.0610351525247097,60.0,494.0,1.0,Rest
258259.578125,269763.40625,716172.375,606607.25,716185.0625,222228.109375,288423.71875,233606.9375,0.010986328125,0.945556640625,0.318359375,-0.8544921278953552,-0.1831054538488388,-0.03051757626235485,60.0,495.0,1.0,Rest
258158.09375,269572.15625,716171.75,606400.4375,716184.0625,222122.796875,288269.9375,233481.140625,0.01123046875,0.948486328125,0.31787109375,-1.0070799589157104,-0.0915527269244194,0.0610351525247097,60.0,496.0,1.0,Rest
258041.875,269397.8125,716168.6875,606176.5,716180.25,222013.890625,288073.40625,233346.859375,0.011962890625,0.94921875,0.317626953125,-0.9765624403953552,-0.03051757626235485,-0.03051757626235485,60.0,497.0,1.0,Rest
258056.796875,269465.65625,716167.25,606121.75,716179.0625,222047.875,288012.15625,233388.078125,0.012451171875,0.948974609375,0.316162109375,-0.9765624403953552,0.0915527269244194,0.1220703050494194,60.0,498.0,1.0,Rest
258171.15625,269674.71875,716169.625,606187.625,716181.125,222175.546875,288084.75,233544.8125,0.011962890625,0.94775390625,0.31982421875,-1.0375975370407104,0.2136230319738388,0.1525878757238388,60.0,499.0,1.0,Rest
258204.234375,269717.53125,716168.5,606152.3125,716180.3125,222205.3125,288087.28125,233589.328125,0.01025390625,0.947509765625,0.318115234375,-1.1901854276657104,0.2136230319738388,0.2441406100988388,60.0,500.0,1.0,Rest
258104.375,269526.8125,716169.25,605946.8125,716181.5,222098.75,287941.09375,233464.609375,0.01025390625,0.948974609375,0.317626953125,-1.1901854276657104,0.2746581733226776,0.3967284858226776,60.0,501.0,1.0,Rest
257983.125,269339.0625,716168.375,605715.25,716179.875,221980.8125,287747.25,233317.359375,0.009521484375,0.9482421875,0.3203125,-1.1596678495407104,0.2441406100988388,0.3356933295726776,60.0,502.0,1.0,Rest
257993.953125,269400.03125,716164.75,605654.1875,716176.1875,222001.921875,287684.03125,233348.109375,0.009033203125,0.947265625,0.320068359375,-1.1596678495407104,0.3662109076976776,0.2441406100988388,60.0,503.0,1.0,Rest
258108.84375,269606.65625,716163.4375,605718.625,716175.4375,222126.734375,287752.875,233508.421875,0.008544921875,0.948974609375,0.320068359375,-1.2207030057907104,0.3356933295726776,0.1831054538488388,60.0,504.0,1.0,Rest
258146.296875,269645.5625,716163.875,605685.25,716175.75,222159.8125,287756.375,233554.734375,0.0087890625,0.947021484375,0.320556640625,-1.2512205839157104,0.3662109076976776,0.0610351525247097,60.0,505.0,1.0,Rest
258039.90625,269446.625,716163.1875,605471.5,716175.125,222040.359375,287598.5625,233415.34375,0.00927734375,0.94482421875,0.319091796875,-1.2817381620407104,0.3051757514476776,0.0915527269244194,60.0,506.0,1.0,Rest
257916.703125,269263.15625,716159.5,605238.875,716171.5625,221920.640625,287399.46875,233257.0,0.0107421875,0.942138671875,0.319091796875,-1.1596678495407104,0.3051757514476776,0.03051757626235485,60.0,507.0,1.0,Rest
257931.640625,269329.15625,716159.3125,605185.5,716171.3125,221954.890625,287350.375,233295.984375,0.01220703125,0.94091796875,0.320556640625,-1.1291502714157104,0.2746581733226776,0.03051757626235485,60.0,508.0,1.0,Rest
258052.15625,269536.84375,716160.625,605261.375,716172.25,222078.71875,287431.90625,233471.84375,0.01025390625,0.938720703125,0.317626953125,-1.0375975370407104,0.3967284858226776,0.03051757626235485,60.0,509.0,1.0,Rest
258084.421875,269573.125,716160.0,605231.875,716171.8125,222105.0,287436.125,233526.921875,0.010009765625,0.936767578125,0.31494140625,-0.9155272841453552,0.4577636420726776,0.0915527269244194,60.0,510.0,1.0,Rest
257977.859375,269378.6875,716157.1875,605027.4375,716169.25,221996.203125,287283.21875,233395.859375,0.011962890625,0.93408203125,0.314208984375,-0.5187987685203552,0.4577636420726776,0.1831054538488388,60.0,511.0,1.0,Rest
257858.140625,269200.03125,716154.8125,604802.3125,716166.9375,221882.296875,287089.5,233247.4375,0.010009765625,0.935302734375,0.31298828125,-0.3051757514476776,0.4577636420726776,0.1831054538488388,60.0,512.0,1.0,Rest
257870.125,269257.34375,716155.5625,604745.0625,716167.5625,221910.453125,287033.25,233276.765625,0.0087890625,0.935546875,0.316162109375,-0.0610351525247097,0.4272460639476776,0.1831054538488388,60.0,513.0,1.0,Rest
257992.875,269474.25,716153.875,604818.625,716165.8125,222040.625,287107.375,233445.109375,0.008056640625,0.93603515625,0.320068359375,0.1831054538488388,0.3967284858226776,0.1220703050494194,60.0,514.0,1.0,Rest
258041.328125,269527.8125,716153.75,604798.5625,716166.0,222083.90625,287120.78125,233512.890625,0.00537109375,0.938720703125,0.31640625,0.2746581733226776,0.2441406100988388,0.0,60.0,515.0,1.0,Rest
257943.96875,269329.6875,716153.3125,604595.375,716165.375,221980.015625,286975.75,233389.140625,0.006103515625,0.938232421875,0.31787109375,0.5493163466453552,0.3051757514476776,-0.03051757626235485,60.0,516.0,1.0,Rest
257825.421875,269154.1875,716153.4375,604375.0,716165.5,221874.609375,286794.625,233253.875,0.00634765625,0.93798828125,0.3193359375,0.6103515028953552,0.2441406100988388,0.1220703050494194,60.0,517.0,1.0,Rest
257844.015625,269226.3125,716154.6875,604326.125,716166.375,221914.203125,286750.90625,233294.640625,0.006591796875,0.9384765625,0.3203125,0.6408690810203552,0.1220703050494194,0.0,60.0,518.0,1.0,Rest
257962.03125,269444.125,716153.5625,604402.75,716165.1875,222049.390625,286829.59375,233459.6875,0.005615234375,0.939453125,0.318115234375,0.8544921278953552,0.03051757626235485,0.0,60.0,519.0,1.0,Rest
257998.15625,269493.9375,716151.875,604372.875,716163.8125,222084.34375,286840.9375,233509.84375,0.009033203125,0.94091796875,0.31591796875,0.9155272841453552,0.03051757626235485,0.0915527269244194,60.0,520.0,1.0,Rest
257884.875,269291.6875,716146.4375,604167.5,716158.5,221967.9375,286689.125,233381.640625,0.007568359375,0.94140625,0.314697265625,0.8544921278953552,-0.0915527269244194,0.1220703050494194,60.0,521.0,1.0,Rest
257770.609375,269118.9375,716146.25,603949.8125,716158.0625,221858.78125,286505.375,233244.75,0.00927734375,0.943115234375,0.317138671875,1.0070799589157104,-0.1525878757238388,-0.1220703050494194,60.0,522.0,1.0,Rest
257795.734375,269191.09375,716150.9375,603901.5,716162.25,221904.828125,286463.0,233285.703125,0.01025390625,0.94384765625,0.318359375,1.0070799589157104,-0.1831054538488388,0.0,60.0,523.0,1.0,Rest
257925.28125,269410.3125,716153.75,603981.0625,716165.1875,222046.171875,286549.03125,233454.765625,0.00927734375,0.94384765625,0.318603515625,0.9460448622703552,-0.2441406100988388,-0.1220703050494194,60.0,524.0,1.0,Rest
257963.640625,269448.5,716153.4375,603953.125,716164.4375,222077.828125,286562.875,233505.90625,0.00537109375,0.94482421875,0.319580078125,1.0070799589157104,-0.3051757514476776,0.0,60.0,525.0,1.0,Rest
257854.390625,269242.25,716149.125,603741.9375,716160.5,221953.28125,286410.53125,233357.40625,0.004638671875,0.944580078125,0.318359375,1.0375975370407104,-0.4882812201976776,0.0,60.0,526.0,1.0,Rest
257739.140625,269062.34375,716148.9375,603523.875,716160.5625,221839.015625,286226.0,233216.6875,0.004150390625,0.94775390625,0.317626953125,0.9765624403953552,-0.4272460639476776,0.03051757626235485,60.0,527.0,1.0,Rest
257745.9375,269120.46875,716146.5,603464.75,716158.25,221861.734375,286170.125,233246.546875,0.00439453125,0.950927734375,0.317138671875,0.8544921278953552,-0.5187987685203552,0.0,60.0,528.0,1.0,Rest
257864.046875,269324.84375,716146.6875,603535.5,716158.6875,221987.609375,286256.40625,233403.28125,0.004150390625,0.953125,0.320556640625,0.7019042372703552,-0.6713866591453552,-0.1220703050494194,60.0,529.0,1.0,Rest
257903.375,269374.375,716145.75,603509.3125,716157.375,222022.84375,286272.75,233446.546875,0.006103515625,0.95703125,0.31982421875,0.5798339247703552,-0.6713866591453552,-0.0610351525247097,60.0,530.0,1.0,Rest
257800.390625,269190.28125,716143.3125,603311.6875,716154.75,221918.859375,286129.53125,233319.671875,0.00732421875,0.955322265625,0.320068359375,0.3662109076976776,-0.9155272841453552,-0.1525878757238388,60.0,531.0,1.0,Rest
257679.6875,269012.03125,716142.625,603091.0625,716154.3125,221806.390625,285943.46875,233183.328125,0.00830078125,0.954345703125,0.321044921875,0.1525878757238388,-0.9765624403953552,-0.03051757626235485,60.0,532.0,1.0,Rest
257692.296875,269073.875,716144.375,603032.9375,716156.25,221838.296875,285898.6875,233221.234375,0.00927734375,0.953857421875,0.32177734375,0.03051757626235485,-1.0986326932907104,0.1525878757238388,60.0,533.0,1.0,Rest
257804.3125,269280.34375,716142.625,603100.5,716154.3125,221960.25,285981.28125,233386.90625,0.009521484375,0.95458984375,0.32177734375,-0.1525878757238388,-1.0986326932907104,0.2746581733226776,60.0,534.0,1.0,Rest
257840.4375,269325.46875,716140.5625,603074.75,716152.25,221992.078125,285996.75,233443.953125,0.0087890625,0.952392578125,0.320068359375,-0.2441406100988388,-1.1596678495407104,0.2441406100988388,60.0,535.0,1.0,Rest
257735.296875,269125.65625,716138.3125,602872.25,716149.8125,221874.78125,285843.40625,233310.015625,0.00830078125,0.950927734375,0.3212890625,-0.3356933295726776,-1.1596678495407104,0.4272460639476776,60.0,536.0,1.0,Rest
257611.828125,268931.09375,716134.75,602647.5625,716146.0625,221752.203125,285646.53125,233164.734375,0.00732421875,0.94921875,0.31982421875,-0.4577636420726776,-1.2817381620407104,0.4577636420726776,60.0,537.0,1.0,Rest
257618.34375,268981.625,716133.625,602585.375,716145.125,221776.796875,285590.75,233194.328125,0.008544921875,0.946044921875,0.32177734375,-0.5187987685203552,-1.3732908964157104,0.4882812201976776,60.0,538.0,1.0,Rest
257733.78125,269188.96875,716132.875,602658.875,716144.3125,221907.234375,285672.375,233364.46875,0.0078125,0.942138671875,0.322509765625,-0.6713866591453552,-1.3732908964157104,0.3662109076976776,60.0,539.0,1.0,Rest
257783.03125,269250.8125,716133.3125,602645.375,716144.5625,221957.578125,285702.0625,233434.296875,0.009765625,0.9404296875,0.322265625,-0.7019042372703552,-1.5258787870407104,0.4272460639476776,60.0,540.0,1.0,Rest
257682.90625,269068.625,716134.8125,602449.4375,716146.0,221857.96875,285564.75,233311.71875,0.009765625,0.9375,0.32080078125,-0.6713866591453552,-1.5258787870407104,0.3662109076976776,60.0,541.0,1.0,Rest
257555.671875,268881.9375,716131.25,602225.9375,716142.625,221742.453125,285370.53125,233167.0625,0.009033203125,0.93798828125,0.321533203125,-0.6408690810203552,-1.5563963651657104,0.3662109076976776,60.0,542.0,1.0,Rest
257562.46875,268925.5625,716130.1875,602161.375,716141.0625,221767.046875,285310.46875,233187.71875,0.007080078125,0.93701171875,0.32177734375,-0.5187987685203552,-1.6174315214157104,0.3662109076976776,60.0,543.0,1.0,Rest
257674.5,269132.71875,716127.5,602231.5625,716138.3125,221894.546875,285376.34375,233336.125,0.01025390625,0.937255859375,0.32080078125,-0.5493163466453552,-1.6174315214157104,0.3051757514476776,60.0,544.0,1.0,Rest
257724.203125,269197.625,716127.5,602225.375,716138.8125,221949.796875,285395.5,233402.296875,0.00927734375,0.9365234375,0.319091796875,-0.4882812201976776,-1.6784666776657104,0.2136230319738388,60.0,545.0,1.0,Rest
257633.640625,269023.28125,716127.5,602041.25,716138.8125,221855.109375,285260.75,233289.546875,0.008056640625,0.935302734375,0.322021484375,-0.3967284858226776,-1.7395018339157104,0.3051757514476776,60.0,546.0,1.0,Rest
257508.296875,268829.1875,716127.0625,601813.5,716138.375,221736.375,285069.875,233137.46875,0.008544921875,0.935546875,0.324462890625,-0.3356933295726776,-1.7089842557907104,0.2746581733226776,60.0,547.0,1.0,Rest
257513.921875,268878.28125,716128.75,601751.25,716139.9375,221758.1875,285011.84375,233158.828125,0.010498046875,0.9365234375,0.322021484375,-0.2441406100988388,-1.7089842557907104,0.0915527269244194,60.0,548.0,1.0,Rest
257631.578125,269091.15625,716128.3125,601829.4375,716139.5625,221883.1875,285088.8125,233328.4375,0.010009765625,0.937744140625,0.324462890625,-0.1831054538488388,-1.7700194120407104,0.0610351525247097,60.0,549.0,1.0,Rest
257682.453125,269154.1875,716127.375,601823.25,716138.6875,221929.3125,285118.96875,233403.453125,0.009765625,0.93896484375,0.32275390625,-0.0610351525247097,-1.8005369901657104,-0.03051757626235485,60.0,550.0,1.0,Rest
257578.03125,268960.875,716123.375,601624.5,716133.9375,221813.09375,284971.25,233270.328125,0.010498046875,0.9375,0.3232421875,0.0,-1.8310545682907104,-0.03051757626235485,60.0,551.0,1.0,Rest
257466.0,268783.59375,716122.6875,601406.875,716133.3125,221703.203125,284791.28125,233128.96875,0.010498046875,0.938720703125,0.3232421875,0.0610351525247097,-1.8310545682907104,-0.03051757626235485,60.0,552.0,1.0,Rest
257471.09375,268829.8125,716121.875,601341.0,716132.75,221718.140625,284732.53125,233148.46875,0.01171875,0.942138671875,0.325439453125,0.0915527269244194,-1.9226073026657104,-0.1525878757238388,60.0,553.0,1.0,Rest
257595.015625,269045.90625,716122.6875,601421.75,716133.5625,221844.109375,284812.90625,233309.390625,0.01123046875,0.941650390625,0.32568359375,0.03051757626235485,-1.8005369901657104,-0.0610351525247097,60.0,554.0,1.0,Rest
257641.328125,269104.1875,716119.6875,601410.9375,716130.375,221883.453125,284836.78125,233374.125,0.011962890625,0.940185546875,0.323486328125,-0.0610351525247097,-1.7700194120407104,-0.0915527269244194,60.0,555.0,1.0,Rest
257541.640625,268921.09375,716118.75,601221.1875,716129.625,221776.96875,284703.03125,233249.3125,0.0146484375,0.94091796875,0.3212890625,-0.0915527269244194,-1.7700194120407104,-0.1525878757238388,60.0,556.0,1.0,Rest
