EEG 1,EEG 2,EEG 3,EEG 4,EEG 5,EEG 6,EEG 7,EEG 8,Accelerometer X,Accelerometer Y,Accelerometer Z,Gyroscope X,Gyroscope Y,Gyroscope Z,Battery Level,Counter,Validation Indicator,State
543418.875,425936.5625,750000.0625,609668.6875,-202239.578125,715968.0,303716.78125,549264.5625,0.066650390625,0.950439453125,-0.1240234375,0.0,0.0,0.0,13.333333969116211,1.0,1.0,Rest
491065.0,207120.578125,750000.0625,750000.0625,-345372.65625,750000.0625,385797.03125,548005.0,0.06201171875,0.9619140625,-0.132080078125,0.0,0.0,0.0,13.333333969116211,2.0,1.0,Rest
487238.1875,344527.5625,750000.0625,750000.0625,-256336.34375,750000.0625,234193.71875,262381.875,0.06103515625,0.966064453125,-0.135986328125,0.0,0.0,0.0,13.333333969116211,3.0,1.0,Rest
429917.84375,528051.125,612253.375,750000.0625,-174729.578125,619586.1875,126921.6171875,88004.453125,0.061279296875,0.96923828125,-0.13623046875,0.0,0.0,0.0,13.333333969116211,4.0,1.0,Rest
308267.9375,612742.625,750000.0625,692814.4375,-66828.859375,464388.34375,213829.578125,130101.109375,0.060546875,0.969970703125,-0.135498046875,0.0,0.0,0.0,13.333333969116211,5.0,1.0,Rest
286292.0625,667598.375,750000.0625,707456.5,98415.359375,540151.9375,407494.03125,480951.90625,0.058349609375,0.968017578125,-0.1357421875,-0.5493163466453552,-0.4577636420726776,-0.4272460639476776,13.333333969116211,6.0,1.0,Rest
453533.1875,750000.0625,750000.0625,750000.0625,259657.8125,717815.125,428017.0625,555092.0,0.056640625,0.968994140625,-0.14013671875,-3.753661870956421,-5.798339366912842,-4.577636241912842,13.333333969116211,7.0,1.0,Rest
553351.5,750000.0625,750000.0625,750000.0625,344498.78125,750000.0625,626655.125,516238.5,0.05419921875,0.96923828125,-0.142333984375,-2.563476324081421,-6.256103038787842,-4.638671398162842,13.333333969116211,8.0,1.0,Rest
556138.1875,750000.0625,750000.0625,750000.0625,431956.0625,750000.0625,750000.0625,629146.5625,0.053955078125,0.9658203125,-0.141357421875,-2.075195074081421,-6.317138195037842,-4.608153820037842,13.333333969116211,9.0,1.0,Rest
582590.75,750000.0625,750000.0625,750000.0625,680290.1875,672870.125,741715.5625,654199.1875,0.052734375,0.965576171875,-0.14453125,-1.7395018339157104,-6.164550304412842,-4.577636241912842,13.333333969116211,10.0,1.0,Rest
644694.875,750000.0625,750000.0625,750000.0625,665137.5,629412.8125,750000.0625,672637.1875,0.053466796875,0.966064453125,-0.142822265625,-1.6479490995407104,-6.011962413787842,-4.364013195037842,13.333333969116211,11.0,1.0,Rest
750000.0625,750000.0625,750000.0625,750000.0625,750000.0625,633821.375,750000.0625,750000.0625,0.052978515625,0.96875,-0.142578125,-1.5869139432907104,-5.737304210662842,-4.272460460662842,13.333333969116211,12.0,1.0,Rest
750000.0625,750000.0625,750000.0625,750000.0625,750000.0625,741664.0,750000.0625,750000.0625,0.0517578125,0.971435546875,-0.140380859375,-1.5563963651657104,-5.676269054412842,-4.089354991912842,13.333333969116211,13.0,1.0,Rest
750000.0625,750000.0625,750000.0625,750000.0625,750000.0625,750000.0625,750000.0625,750000.0625,0.052734375,0.97265625,-0.14013671875,-1.5563963651657104,-5.401610851287842,-3.875732183456421,13.333333969116211,14.0,1.0,Rest
750000.0625,750000.0625,750000.0625,750000.0625,750000.0625,750000.0625,750000.0625,750000.0625,0.052978515625,0.972412109375,-0.142822265625,-1.6479490995407104,-5.249022960662842,-3.692626714706421,13.333333969116211,15.0,1.0,Rest
750000.0625,750000.0625,750000.0625,750000.0625,750000.0625,750000.0625,750000.0625,750000.0625,0.054443359375,0.969970703125,-0.14111328125,-1.8005369901657104,-5.065917491912842,-3.448486089706421,13.333333969116211,16.0,1.0,Rest
750000.0625,750000.0625,750000.0625,750000.0625,750000.0625,750000.0625,750000.0625,750000.0625,0.056640625,0.96826171875,-0.14306640625,-1.7700194120407104,-4.821776866912842,-3.204345464706421,13.333333969116211,17.0,1.0,Rest
750000.0625,750000.0625,750000.0625,750000.0625,750000.0625,750000.0625,750000.0625,750000.0625,0.05712890625,0.96630859375,-0.14404296875,-1.7395018339157104,-4.455565929412842,-3.021239995956421,13.333333969116211,18.0,1.0,Rest
750000.0625,750000.0625,750000.0625,750000.0625,750000.0625,750000.0625,750000.0625,750000.0625,0.05859375,0.96875,-0.142578125,-1.5869139432907104,-4.119872570037842,-2.777099370956421,13.333333969116211,19.0,1.0,Rest
713826.0625,750000.0625,750000.0625,750000.0625,750000.0625,750000.0625,750000.0625,750000.0625,0.058837890625,0.970703125,-0.14306640625,-1.6174315214157104,-3.875732183456421,-2.532958745956421,13.333333969116211,20.0,1.0,Rest
674502.125,750000.0625,750000.0625,750000.0625,750000.0625,750000.0625,750000.0625,750000.0625,0.05712890625,0.969482421875,-0.143798828125,-1.4648436307907104,-3.631591558456421,-2.319335699081421,13.333333969116211,21.0,1.0,Rest
649943.1875,750000.0625,750000.0625,750000.0625,750000.0625,750000.0625,750000.0625,750000.0625,0.057373046875,0.967529296875,-0.142578125,-1.5258787870407104,-3.265380620956421,-2.136230230331421,13.333333969116211,22.0,1.0,Rest
628534.1875,750000.0625,750000.0625,750000.0625,750000.0625,727832.625,750000.0625,750000.0625,0.056396484375,0.9677734375,-0.1396484375,-1.5869139432907104,-3.021239995956421,-1.9836424589157104,13.333333969116211,23.0,1.0,Rest
609857.375,750000.0625,750000.0625,750000.0625,750000.0625,703234.0,750000.0625,750000.0625,0.05908203125,0.96923828125,-0.140380859375,-1.5869139432907104,-2.777099370956421,-1.7700194120407104,13.333333969116211,24.0,1.0,Rest
592358.0,750000.0625,750000.0625,750000.0625,750000.0625,680630.25,750000.0625,750000.0625,0.058349609375,0.970703125,-0.139892578125,-1.5563963651657104,-2.502441167831421,-1.6479490995407104,13.333333969116211,25.0,1.0,Rest
575438.25,750000.0625,750000.0625,750000.0625,750000.0625,659759.875,750000.0625,750000.0625,0.05810546875,0.968994140625,-0.139892578125,-1.4953612089157104,-2.258300542831421,-1.5258787870407104,13.333333969116211,26.0,1.0,Rest
559544.5,750000.0625,750000.0625,750000.0625,750000.0625,640522.4375,750000.0625,750000.0625,0.058837890625,0.970947265625,-0.138671875,-1.4648436307907104,-2.014159917831421,-1.3122557401657104,13.333333969116211,27.0,1.0,Rest
545629.4375,750000.0625,750000.0625,750000.0625,750000.0625,622899.1875,750000.0625,750000.0625,0.05615234375,0.96826171875,-0.138916015625,-1.3427733182907104,-1.9226073026657104,-1.1596678495407104,13.333333969116211,28.0,1.0,Rest
533494.6875,750000.0625,750000.0625,750000.0625,750000.0625,606686.375,750000.0625,750000.0625,0.057373046875,0.96728515625,-0.14208984375,-1.4648436307907104,-1.6784666776657104,-1.0986326932907104,13.333333969116211,29.0,1.0,Rest
521881.15625,750000.0625,750000.0625,750000.0625,750000.0625,591591.9375,750000.0625,750000.0625,0.055908203125,0.967041015625,-0.143798828125,-1.4648436307907104,-1.4953612089157104,-0.9155272841453552,13.333333969116211,30.0,1.0,Rest
510332.46875,750000.0625,750000.0625,750000.0625,750000.0625,577442.875,750000.0625,750000.0625,0.055419921875,0.966064453125,-0.142578125,-1.4648436307907104,-1.3427733182907104,-0.9155272841453552,13.333333969116211,31.0,1.0,Rest
499280.5,750000.0625,750000.0625,750000.0625,750000.0625,564237.6875,750000.0625,750000.0625,0.0546875,0.965576171875,-0.14453125,-1.3427733182907104,-1.2207030057907104,-0.9460448622703552,13.333333969116211,32.0,1.0,Rest
489620.96875,750000.0625,750000.0625,750000.0625,750000.0625,552032.5625,750000.0625,750000.0625,0.053466796875,0.966064453125,-0.143798828125,-1.2817381620407104,-1.0375975370407104,-0.8544921278953552,13.333333969116211,33.0,1.0,Rest
481339.375,750000.0625,750000.0625,750000.0625,750000.0625,540757.125,750000.0625,750000.0625,0.054443359375,0.969970703125,-0.141357421875,-1.0986326932907104,-1.0070799589157104,-0.8850097060203552,13.333333969116211,34.0,1.0,Rest
473243.5,750000.0625,750000.0625,750000.0625,750000.0625,530119.5625,750000.0625,750000.0625,0.056396484375,0.9716796875,-0.142333984375,-0.9765624403953552,-0.9460448622703552,-0.8850097060203552,13.333333969116211,35.0,1.0,Rest
464942.3125,750000.0625,750000.0625,750000.0625,750000.0625,520048.21875,750000.0625,750000.0625,0.056396484375,0.97412109375,-0.140869140625,-1.1596678495407104,-0.7324218153953552,-0.8239745497703552,13.333333969116211,36.0,1.0,Rest
456872.0,750000.0625,750000.0625,750000.0625,750000.0625,510557.21875,750000.0625,750000.0625,0.057373046875,0.974853515625,-0.14013671875,-1.2207030057907104,-0.6103515028953552,-0.7629393935203552,13.333333969116211,37.0,1.0,Rest
449920.875,750000.0625,750000.0625,750000.0625,750000.0625,501757.0,750000.0625,750000.0625,0.05859375,0.97265625,-0.14013671875,-1.3122557401657104,-0.5493163466453552,-0.5187987685203552,13.333333969116211,38.0,1.0,Rest
444036.28125,750000.0625,750000.0625,750000.0625,750000.0625,493575.53125,750000.0625,750000.0625,0.05859375,0.9697265625,-0.140869140625,-1.5563963651657104,-0.4272460639476776,-0.4882812201976776,13.333333969116211,39.0,1.0,Rest
438168.6875,750000.0625,750000.0625,750000.0625,750000.0625,485804.46875,750000.0625,750000.0625,0.058837890625,0.968017578125,-0.142822265625,-1.5869139432907104,-0.3356933295726776,-0.4577636420726776,13.333333969116211,40.0,1.0,Rest
431946.6875,750000.0625,750000.0625,750000.0625,750000.0625,478345.40625,750000.0625,750000.0625,0.05859375,0.970703125,-0.14208984375,-1.5258787870407104,-0.2136230319738388,-0.4882812201976776,13.333333969116211,41.0,1.0,Rest
425848.5,750000.0625,750000.0625,750000.0625,750000.0625,471292.53125,750000.0625,750000.0625,0.058837890625,0.9736328125,-0.140380859375,-1.5258787870407104,-0.2441406100988388,-0.5493163466453552,13.333333969116211,42.0,1.0,Rest
420688.375,750000.0625,750000.0625,750000.0625,750000.0625,464748.125,750000.0625,742336.0,0.05712890625,0.975341796875,-0.140625,-1.5869139432907104,-0.2136230319738388,-0.4577636420726776,13.333333969116211,43.0,1.0,Rest
416398.34375,750000.0625,750000.0625,750000.0625,750000.0625,458624.8125,750000.0625,730703.625,0.057373046875,0.977783203125,-0.140625,-1.7089842557907104,-0.1220703050494194,-0.3662109076976776,13.333333969116211,44.0,1.0,Rest
412054.875,750000.0625,750000.0625,750000.0625,750000.0625,452792.1875,750000.0625,719581.1875,0.05712890625,0.9775390625,-0.14013671875,-1.7395018339157104,-0.0915527269244194,-0.2441406100988388,13.333333969116211,45.0,1.0,Rest
407288.0625,750000.0625,750000.0625,750000.0625,750000.0625,447155.4375,750000.0625,708533.875,0.0576171875,0.980712890625,-0.136474609375,-1.8920897245407104,-0.0915527269244194,-0.3356933295726776,13.333333969116211,46.0,1.0,Rest
402515.5,750000.0625,750000.0625,750000.0625,750000.0625,441770.28125,747798.1875,697739.5,0.056396484375,0.9794921875,-0.138916015625,-2.044677495956421,-0.0610351525247097,-0.1831054538488388,13.333333969116211,47.0,1.0,Rest
398560.59375,750000.0625,750000.0625,750000.0625,750000.0625,436759.625,736962.0,687787.5,0.05517578125,0.981689453125,-0.139892578125,-2.349853277206421,0.03051757626235485,-0.3051757514476776,13.333333969116211,48.0,1.0,Rest
395410.5,750000.0625,750000.0625,750000.0625,750000.0625,432100.71875,726878.5,678794.1875,0.052978515625,0.982177734375,-0.13916015625,-2.380370855331421,-0.0915527269244194,-0.3051757514476776,13.333333969116211,49.0,1.0,Rest
392118.28125,750000.0625,750000.0625,750000.0625,750000.0625,427607.03125,717183.1875,670107.8125,0.052734375,0.982666015625,-0.139892578125,-2.563476324081421,-0.2441406100988388,-0.4272460639476776,13.333333969116211,50.0,1.0,Rest
388376.0625,750000.0625,750000.0625,750000.0625,750000.0625,423229.84375,707689.8125,661366.9375,0.050048828125,0.9814453125,-0.138916015625,-2.655029058456421,-0.3356933295726776,-0.3356933295726776,13.333333969116211,51.0,1.0,Rest
384585.125,750000.0625,750000.0625,750000.0625,750000.0625,419041.6875,698496.875,652766.1875,0.049072265625,0.980712890625,-0.140625,-2.838134527206421,-0.2746581733226776,-0.4577636420726776,13.333333969116211,52.0,1.0,Rest
381523.28125,750000.0625,750000.0625,750000.0625,750000.0625,415144.875,689863.75,644854.1875,0.0498046875,0.977783203125,-0.14111328125,-2.960204839706421,-0.5187987685203552,-0.5493163466453552,13.333333969116211,53.0,1.0,Rest
379173.75,750000.0625,750000.0625,750000.0625,750000.0625,411505.5625,681824.25,637737.25,0.048828125,0.976318359375,-0.142578125,-3.051757574081421,-0.7324218153953552,-0.5187987685203552,13.333333969116211,54.0,1.0,Rest
376658.84375,748053.4375,750000.0625,750000.0625,750000.0625,407993.21875,674069.25,630833.875,0.0498046875,0.976806640625,-0.1396484375,-3.051757574081421,-0.8239745497703552,-0.6103515028953552,13.333333969116211,55.0,1.0,Rest
373665.21875,739253.125,750000.0625,750000.0625,750000.0625,404547.90625,666424.375,623796.1875,0.0478515625,0.973876953125,-0.140380859375,-2.899169683456421,-1.0375975370407104,-0.7019042372703552,13.333333969116211,56.0,1.0,Rest
370580.84375,730555.6875,750000.0625,750000.0625,750000.0625,401230.28125,658966.8125,616794.5625,0.0478515625,0.97314453125,-0.139892578125,-2.868652105331421,-1.0986326932907104,-0.7629393935203552,13.333333969116211,57.0,1.0,Rest
368173.40625,722482.0625,750000.0625,750000.0625,750000.0625,398154.9375,651969.8125,610391.5625,0.050537109375,0.9697265625,-0.138427734375,-2.777099370956421,-1.2512205839157104,-0.8239745497703552,13.333333969116211,58.0,1.0,Rest
366418.34375,715151.0625,750000.0625,750000.0625,750000.0625,395288.46875,645463.9375,604691.3125,0.051513671875,0.968017578125,-0.140380859375,-2.685546636581421,-1.3122557401657104,-0.9155272841453552,13.333333969116211,59.0,1.0,Rest
364480.34375,708031.25,750000.0625,750000.0625,750000.0625,392499.25,639156.9375,599128.1875,0.052734375,0.967041015625,-0.139892578125,-2.441406011581421,-1.3732908964157104,-0.8850097060203552,13.333333969116211,60.0,1.0,Rest
362047.21875,700799.3125,750000.0625,750000.0625,750000.0625,389737.0,632883.5,593361.0,0.05224609375,0.96630859375,-0.138671875,-2.258300542831421,-1.5563963651657104,-0.9460448622703552,13.333333969116211,61.0,1.0,Rest
359498.21875,693597.0,750000.0625,750000.0625,750000.0625,387066.96875,626732.125,587574.5625,0.052490234375,0.968505859375,-0.137939453125,-2.136230230331421,-1.6479490995407104,-0.9765624403953552,13.333333969116211,62.0,1.0,Rest
357581.0,686921.1875,750000.0625,750000.0625,750000.0625,384601.03125,620972.0625,582312.75,0.053466796875,0.96826171875,-0.138671875,-2.044677495956421,-1.7089842557907104,-1.0986326932907104,13.333333969116211,63.0,1.0,Rest
356287.8125,680917.5,750000.0625,750000.0625,750000.0625,382318.46875,615645.375,577689.0,0.05517578125,0.970703125,-0.138671875,-1.8615721464157104,-1.8615721464157104,-1.0986326932907104,13.333333969116211,64.0,1.0,Rest
354788.28125,675059.625,750000.0625,750000.0625,750000.0625,380081.34375,610459.875,573146.4375,0.053466796875,0.97216796875,-0.14111328125,-1.8005369901657104,-1.8005369901657104,-1.0986326932907104,13.333333969116211,65.0,1.0,Rest
352791.09375,669044.4375,750000.0625,750000.0625,750000.0625,377854.90625,605265.5,568368.4375,0.05322265625,0.971923828125,-0.14111328125,-1.8005369901657104,-1.7395018339157104,-1.0681151151657104,13.333333969116211,66.0,1.0,Rest
350658.75,663003.375,750000.0625,750000.0625,750000.0625,375691.0,600136.5625,563522.4375,0.053955078125,0.97216796875,-0.140625,-1.6784666776657104,-1.8310545682907104,-1.0986326932907104,13.333333969116211,67.0,1.0,Rest
349124.53125,657429.0,750000.0625,750000.0625,750000.0625,373702.9375,595336.3125,559140.25,0.054931640625,0.97265625,-0.140380859375,-1.7089842557907104,-1.8005369901657104,-1.0986326932907104,13.333333969116211,68.0,1.0,Rest
348186.28125,652461.875,750000.0625,750000.0625,750000.0625,371874.03125,590919.375,555346.1875,0.053955078125,0.970947265625,-0.14013671875,-1.6174315214157104,-1.7700194120407104,-1.0375975370407104,13.333333969116211,69.0,1.0,Rest
347030.96875,647595.8125,750000.0625,750000.0625,750000.0625,370073.65625,586605.125,551603.0625,0.0517578125,0.970947265625,-0.137939453125,-1.7089842557907104,-1.8005369901657104,-0.9460448622703552,13.333333969116211,70.0,1.0,Rest
345361.03125,642519.3125,750000.0625,750000.0625,750000.0625,368249.75,582226.6875,547580.125,0.053466796875,0.972900390625,-0.140380859375,-1.6174315214157104,-1.6784666776657104,-0.7629393935203552,13.333333969116211,71.0,1.0,Rest
343547.3125,637382.0,750000.0625,750000.0625,750000.0625,366477.34375,577884.6875,543464.1875,0.05517578125,0.9736328125,-0.139404296875,-1.6784666776657104,-1.7089842557907104,-0.7324218153953552,13.333333969116211,72.0,1.0,Rest
342303.40625,632666.4375,750000.0625,750000.0625,750000.0625,364855.6875,573830.125,539776.4375,0.056884765625,0.974853515625,-0.13916015625,-1.7395018339157104,-1.7089842557907104,-0.7324218153953552,13.333333969116211,73.0,1.0,Rest
341635.53125,628513.3125,750000.0625,750000.0625,750000.0625,363374.21875,570121.25,536635.0,0.056884765625,0.973876953125,-0.135498046875,-1.7700194120407104,-1.7700194120407104,-0.7019042372703552,13.333333969116211,74.0,1.0,Rest
340744.84375,624420.5,750000.0625,750000.0625,750000.0625,361899.875,566471.0,533501.625,0.057373046875,0.970703125,-0.135986328125,-1.7089842557907104,-1.6479490995407104,-0.7324218153953552,13.333333969116211,75.0,1.0,Rest
339339.65625,620105.625,750000.0625,750000.0625,750000.0625,360399.90625,562750.25,530085.0625,0.05810546875,0.968505859375,-0.138427734375,-1.6174315214157104,-1.8005369901657104,-0.6713866591453552,13.333333969116211,76.0,1.0,Rest
337777.15625,615693.375,750000.0625,750000.0625,750000.0625,358932.90625,559033.0,526545.25,0.0595703125,0.96923828125,-0.138671875,-1.6784666776657104,-1.6174315214157104,-0.6713866591453552,13.333333969116211,77.0,1.0,Rest
336767.75,611657.125,750000.0625,750000.0625,750000.0625,357600.21875,555571.9375,523399.46875,0.05712890625,0.97119140625,-0.141845703125,-1.5563963651657104,-1.4343260526657104,-0.6103515028953552,13.333333969116211,78.0,1.0,Rest
336319.21875,608153.375,750000.0625,750000.0625,750000.0625,356398.84375,552436.0,520780.84375,0.05712890625,0.970947265625,-0.136962890625,-1.3122557401657104,-1.3427733182907104,-0.6103515028953552,13.333333969116211,79.0,1.0,Rest
335634.09375,604677.6875,750000.0625,750000.0625,750000.0625,355187.84375,549337.875,518151.8125,0.060302734375,0.973876953125,-0.1376953125,-1.3732908964157104,-1.1901854276657104,-0.5493163466453552,13.333333969116211,80.0,1.0,Rest
334432.71875,600949.9375,749709.4375,749486.5625,749637.5625,353933.71875,546131.75,515205.3125,0.05859375,0.9755859375,-0.134033203125,-1.3122557401657104,-1.0070799589157104,-0.5187987685203552,13.333333969116211,81.0,1.0,Rest
333066.59375,597101.125,748074.75,747852.6875,748003.3125,352699.0,542907.4375,512117.75,0.056884765625,0.97509765625,-0.135498046875,-1.3427733182907104,-0.9765624403953552,-0.4882812201976776,13.333333969116211,82.0,1.0,Rest
332257.0,593627.75,746526.375,746304.75,746455.4375,351605.75,539938.5,509424.8125,0.056884765625,0.975830078125,-0.134765625,-1.3427733182907104,-0.9460448622703552,-0.4272460639476776,13.333333969116211,83.0,1.0,Rest
331987.25,590660.0,745053.6875,744832.5,744982.5,350626.125,537266.125,507228.6875,0.056396484375,0.974853515625,-0.1357421875,-1.3427733182907104,-0.7324218153953552,-0.4577636420726776,13.333333969116211,84.0,1.0,Rest
331474.96875,587696.75,743633.25,743412.5,743562.1875,349633.6875,534613.1875,505004.53125,0.057373046875,0.974365234375,-0.1328125,-1.3122557401657104,-0.6103515028953552,-0.2746581733226776,13.333333969116211,85.0,1.0,Rest
330443.125,584463.625,742255.6875,742035.3125,742184.625,348590.03125,531840.5,502456.25,0.0576171875,0.970947265625,-0.13525390625,-1.2207030057907104,-0.4882812201976776,-0.2441406100988388,13.333333969116211,86.0,1.0,Rest
329244.96875,581099.8125,740936.125,740716.375,740865.6875,347565.25,529041.5,499761.53125,0.059814453125,0.97265625,-0.134521484375,-1.1291502714157104,-0.3967284858226776,-0.2441406100988388,13.333333969116211,87.0,1.0,Rest
328580.75,578079.0625,739684.4375,739465.375,739614.6875,346661.4375,526467.375,497429.5,0.058349609375,0.97119140625,-0.136962890625,-1.1901854276657104,-0.2746581733226776,-0.3051757514476776,13.333333969116211,88.0,1.0,Rest
328438.59375,575526.0625,738493.4375,738274.875,738423.4375,345856.4375,524161.5625,495566.1875,0.05859375,0.97119140625,-0.13330078125,-1.0986326932907104,-0.1220703050494194,-0.2441406100988388,13.333333969116211,89.0,1.0,Rest
328037.875,572950.4375,737334.75,737116.25,737264.8125,345015.90625,521842.53125,493647.6875,0.059814453125,0.971435546875,-0.135498046875,-1.0070799589157104,-0.03051757626235485,-0.0610351525247097,13.333333969116211,90.0,1.0,Rest
327109.65625,570078.4375,736199.5625,735981.1875,736130.0625,344103.15625,519370.96875,491377.03125,0.0595703125,0.9716796875,-0.13427734375,-0.7629393935203552,0.1525878757238388,-0.0915527269244194,13.333333969116211,91.0,1.0,Rest
326025.0625,567069.5,735115.0,734896.6875,735045.375,343206.9375,516871.78125,488960.96875,0.0595703125,0.97216796875,-0.1318359375,-0.7019042372703552,0.3051757514476776,-0.0610351525247097,13.333333969116211,92.0,1.0,Rest
325465.375,564373.625,734087.5,733869.6875,734018.0,342419.0,514578.21875,486887.28125,0.05859375,0.973876953125,-0.1328125,-0.6408690810203552,0.3662109076976776,0.03051757626235485,13.333333969116211,93.0,1.0,Rest
325437.21875,562153.0,733115.625,732898.375,733046.3125,341745.84375,512563.78125,485286.875,0.057373046875,0.9736328125,-0.133056640625,-0.4882812201976776,0.5493163466453552,0.1525878757238388,13.333333969116211,94.0,1.0,Rest
325164.0625,559925.25,732174.9375,731958.0,732106.0625,341055.4375,510554.28125,483647.34375,0.0556640625,0.970947265625,-0.129638671875,-0.4882812201976776,0.6408690810203552,0.2746581733226776,13.333333969116211,95.0,1.0,Rest
324370.5,557400.875,731260.0,731043.8125,731191.3125,340305.3125,508406.09375,481665.90625,0.054931640625,0.971923828125,-0.1318359375,-0.3967284858226776,0.7019042372703552,0.3967284858226776,13.333333969116211,96.0,1.0,Rest
323405.09375,554722.75,730383.25,730167.625,730314.875,339556.09375,506205.15625,479516.75,0.054931640625,0.970458984375,-0.134033203125,-0.4577636420726776,0.7934569716453552,0.4577636420726776,13.333333969116211,97.0,1.0,Rest
322952.59375,552358.125,729553.1875,729337.8125,729485.0625,338915.125,504205.59375,477705.71875,0.05419921875,0.969482421875,-0.135009765625,-0.3967284858226776,0.8239745497703552,0.5187987685203552,13.333333969116211,98.0,1.0,Rest
323007.5625,550435.875,728764.875,728549.6875,728696.25,338362.34375,502452.3125,476339.65625,0.0546875,0.96875,-0.134521484375,-0.2441406100988388,0.8239745497703552,0.6713866591453552,13.333333969116211,99.0,1.0,Rest
322823.40625,548499.4375,728004.6875,727789.625,727936.1875,337790.40625,500698.40625,474935.4375,0.052978515625,0.97119140625,-0.13232421875,-0.1220703050494194,0.7934569716453552,0.7934569716453552,13.333333969116211,100.0,1.0,Rest
322105.625,546254.875,727254.1875,727039.25,727185.6875,337132.53125,498770.625,473161.6875,0.053955078125,0.9736328125,-0.133544921875,0.0610351525247097,0.6713866591453552,0.9765624403953552,13.333333969116211,101.0,1.0,Rest
321214.53125,543843.1875,726533.0,726318.0625,726464.375,336479.25,496788.8125,471218.875,0.053466796875,0.97216796875,-0.133544921875,0.2441406100988388,0.5798339247703552,1.0070799589157104,13.333333969116211,102.0,1.0,Rest
320834.28125,541723.25,725852.0,725637.375,725783.6875,335926.8125,494995.21875,469600.875,0.052734375,0.974365234375,-0.1298828125,0.3662109076976776,0.4882812201976776,1.0986326932907104,13.333333969116211,103.0,1.0,Rest
320956.3125,540041.9375,725213.375,724999.0625,725145.25,335468.21875,493448.5625,468428.75,0.05029296875,0.971923828125,-0.1298828125,0.4272460639476776,0.4577636420726776,1.2207030057907104,13.333333969116211,104.0,1.0,Rest
320816.5625,538310.5,724586.8125,724372.75,724519.0625,334966.375,491869.46875,467181.96875,0.050048828125,0.969970703125,-0.130615234375,0.4882812201976776,0.2746581733226776,1.0375975370407104,13.333333969116211,105.0,1.0,Rest
320167.5625,536275.0,723970.875,723756.75,723903.125,334404.375,490141.78125,465589.8125,0.052001953125,0.969482421875,-0.12841796875,0.5187987685203552,0.1831054538488388,0.9460448622703552,13.333333969116211,106.0,1.0,Rest
319351.28125,534086.3125,723377.6875,723163.8125,723309.875,333834.75,488350.15625,463819.09375,0.055419921875,0.968994140625,-0.130859375,0.7629393935203552,0.1220703050494194,1.0070799589157104,13.333333969116211,107.0,1.0,Rest
319040.0625,532190.3125,722824.875,722611.375,722757.125,333369.03125,486749.125,462373.03125,0.057861328125,0.970703125,-0.1357421875,0.9155272841453552,0.1831054538488388,1.0375975370407104,13.333333969116211,108.0,1.0,Rest
319221.0,530720.375,722303.75,722090.6875,722236.1875,332989.40625,485384.78125,461359.96875,0.06396484375,0.971923828125,-0.13623046875,1.0070799589157104,0.1831054538488388,1.0681151151657104,13.333333969116211,109.0,1.0,Rest
319142.5,529194.0,721790.25,721577.125,721722.75,332561.59375,483979.84375,460267.40625,0.065673828125,0.97021484375,-0.13720703125,1.1291502714157104,0.1525878757238388,1.1596678495407104,13.333333969116211,110.0,1.0,Rest
318550.1875,527359.125,721283.3125,721070.5,721215.8125,332070.6875,482418.53125,458825.0,0.0673828125,0.969970703125,-0.136962890625,1.3427733182907104,0.3051757514476776,1.3427733182907104,13.333333969116211,111.0,1.0,Rest
317779.6875,525338.25,720795.9375,720583.0625,720728.625,331570.4375,480788.90625,457201.5625,0.0673828125,0.96826171875,-0.136474609375,1.3122557401657104,0.3662109076976776,1.4343260526657104,13.333333969116211,112.0,1.0,Rest
317514.9375,523610.75,720342.5625,720129.8125,720275.625,331165.6875,479336.65625,455893.8125,0.06396484375,0.96875,-0.135986328125,1.4953612089157104,0.5187987685203552,1.4343260526657104,13.333333969116211,113.0,1.0,Rest
317743.5625,522305.3125,719917.25,719704.8125,719850.1875,330845.09375,478111.25,455010.46875,0.062744140625,0.96728515625,-0.135498046875,1.6784666776657104,0.5798339247703552,1.4038084745407104,13.333333969116211,114.0,1.0,Rest
317719.6875,520949.53125,719497.4375,719285.0625,719430.625,330484.15625,476853.125,454053.0,0.0634765625,0.966552734375,-0.138916015625,1.7395018339157104,0.6103515028953552,1.0986326932907104,13.333333969116211,115.0,1.0,Rest
317177.78125,519277.90625,719077.75,718865.9375,719011.125,330051.25,475432.90625,452736.46875,0.060791015625,0.96728515625,-0.14013671875,1.8310545682907104,0.7019042372703552,1.0375975370407104,13.333333969116211,116.0,1.0,Rest
316459.0625,517420.375,718672.8125,718460.375,718605.75,329605.1875,473932.28125,451228.09375,0.059326171875,0.96826171875,-0.1396484375,1.9836424589157104,0.7629393935203552,0.8850097060203552,13.333333969116211,117.0,1.0,Rest
316240.4375,515842.875,718300.8125,718088.6875,718233.9375,329259.0,472613.09375,450038.8125,0.062255859375,0.968994140625,-0.138916015625,1.9836424589157104,0.6408690810203552,0.9460448622703552,13.333333969116211,118.0,1.0,Rest
316512.15625,514682.125,717955.125,717743.25,717888.375,328993.8125,471524.09375,449276.15625,0.063232421875,0.9697265625,-0.137939453125,1.9836424589157104,0.7019042372703552,0.7934569716453552,13.333333969116211,119.0,1.0,Rest
316516.0,513458.21875,717608.875,717397.0625,717542.0625,328679.375,470389.34375,448426.0,0.0654296875,0.96875,-0.13623046875,1.9531248807907104,0.6408690810203552,0.7019042372703552,13.333333969116211,120.0,1.0,Rest
316007.0,511921.84375,717263.375,717051.6875,717196.4375,328298.5,469091.4375,447220.0625,0.0654296875,0.9677734375,-0.140625,1.8310545682907104,0.6713866591453552,0.5798339247703552,13.333333969116211,121.0,1.0,Rest
315325.28125,510211.03125,716930.8125,716718.9375,716863.6875,327908.5,467716.4375,445829.625,0.066162109375,0.9677734375,-0.14208984375,1.8310545682907104,0.7019042372703552,0.6103515028953552,13.333333969116211,122.0,1.0,Rest
315134.65625,508771.40625,716625.5,716414.0625,716559.0625,327602.90625,466504.0,444740.625,0.06689453125,0.968994140625,-0.143798828125,1.9531248807907104,0.7629393935203552,0.4882812201976776,13.333333969116211,123.0,1.0,Rest
315431.21875,507732.9375,716339.125,716127.9375,716272.75,327376.8125,465509.78125,444067.03125,0.06787109375,0.970458984375,-0.142333984375,2.014159917831421,0.8239745497703552,0.4577636420726776,13.333333969116211,124.0,1.0,Rest
315480.75,506653.4375,716056.875,715845.5625,715990.4375,327117.4375,464490.09375,443327.03125,0.066650390625,0.971923828125,-0.142578125,1.9531248807907104,0.9765624403953552,0.3967284858226776,13.333333969116211,125.0,1.0,Rest
315003.96875,505239.65625,715767.6875,715556.8125,715701.1875,326771.625,463286.6875,442209.96875,0.065185546875,0.974853515625,-0.14501953125,1.8920897245407104,0.9460448622703552,0.3051757514476776,13.333333969116211,126.0,1.0,Rest
314352.1875,503636.5,715488.875,715277.875,715422.5,326413.8125,462007.53125,440907.3125,0.0654296875,0.975830078125,-0.145751953125,1.8920897245407104,0.9765624403953552,0.1525878757238388,13.333333969116211,127.0,1.0,Rest
314190.25,502297.8125,715237.375,715026.1875,715171.25,326148.53125,460898.1875,439910.4375,0.064453125,0.97607421875,-0.146728515625,1.8005369901657104,1.0681151151657104,0.1220703050494194,13.333333969116211,128.0,1.0,Rest
314511.0625,501356.4375,715002.1875,714791.3125,714936.375,325955.78125,459999.46875,439314.96875,0.063232421875,0.974853515625,-0.14599609375,1.7700194120407104,0.9765624403953552,0.0915527269244194,13.333333969116211,129.0,1.0,Rest
314588.21875,500375.03125,714771.5625,714560.625,714705.3125,325729.84375,459073.90625,438648.53125,0.063720703125,0.9736328125,-0.14501953125,1.6174315214157104,1.0070799589157104,0.0610351525247097,13.333333969116211,130.0,1.0,Rest
314142.0625,499063.15625,714533.25,714322.5625,714467.0,325424.34375,457970.09375,437614.375,0.060546875,0.97509765625,-0.145263671875,1.4953612089157104,0.7934569716453552,0.0915527269244194,13.333333969116211,131.0,1.0,Rest
313512.65625,497559.15625,714299.3125,714089.0,714233.75,325096.3125,456776.6875,436386.375,0.064208984375,0.97607421875,-0.144287109375,1.5258787870407104,0.8850097060203552,0.03051757626235485,13.333333969116211,132.0,1.0,Rest
313381.03125,496341.25,714089.375,713879.25,714023.3125,324861.96875,455749.0625,435463.21875,0.063232421875,0.974853515625,-0.146240234375,1.4953612089157104,0.8239745497703552,0.2746581733226776,13.333333969116211,133.0,1.0,Rest
313728.21875,495516.65625,713897.875,713687.6875,713831.9375,324705.5,454935.0,434951.46875,0.06298828125,0.975341796875,-0.143310546875,1.4343260526657104,0.7019042372703552,0.3356933295726776,13.333333969116211,134.0,1.0,Rest
313805.71875,494618.125,713701.1875,713490.8125,713635.1875,324495.84375,454068.125,434349.65625,0.06396484375,0.977294921875,-0.14306640625,1.3427733182907104,0.6103515028953552,0.4577636420726776,13.333333969116211,135.0,1.0,Rest
313382.03125,493411.90625,713501.0,713290.4375,713434.875,324226.65625,453045.84375,433398.46875,0.065673828125,0.976318359375,-0.14111328125,1.2817381620407104,0.4882812201976776,0.5187987685203552,13.333333969116211,136.0,1.0,Rest
312775.65625,492006.53125,713305.1875,713095.4375,713239.5625,323933.375,451927.78125,432244.3125,0.06591796875,0.974365234375,-0.140869140625,1.1901854276657104,0.5798339247703552,0.5493163466453552,13.333333969116211,137.0,1.0,Rest
312661.21875,490868.65625,713136.125,712926.625,713070.6875,323736.34375,450979.46875,431398.34375,0.06787109375,0.9736328125,-0.14111328125,1.1901854276657104,0.6713866591453552,0.6713866591453552,13.333333969116211,138.0,1.0,Rest
313023.0625,490126.65625,712978.0625,712768.4375,712912.5625,323602.65625,450231.3125,430947.5625,0.068359375,0.971923828125,-0.140625,1.1596678495407104,0.7019042372703552,0.7324218153953552,13.333333969116211,139.0,1.0,Rest
313129.96875,489324.9375,712816.9375,712607.0625,712751.3125,323425.375,449439.34375,430409.9375,0.066650390625,0.9716796875,-0.142578125,1.0375975370407104,0.6408690810203552,0.8544921278953552,13.333333969116211,140.0,1.0,Rest
312725.59375,488197.34375,712649.5625,712440.0,712584.625,323175.40625,448484.03125,429515.25,0.066162109375,0.97021484375,-0.1396484375,1.0986326932907104,0.5798339247703552,0.9765624403953552,13.333333969116211,141.0,1.0,Rest
312141.15625,486877.625,712487.1875,712277.8125,712422.375,322910.46875,447445.1875,428427.53125,0.065673828125,0.96826171875,-0.14111328125,1.0070799589157104,0.5187987685203552,1.0375975370407104,13.333333969116211,142.0,1.0,Rest
312038.6875,485815.375,712342.875,712133.4375,712277.8125,322727.09375,446560.53125,427626.8125,0.06640625,0.96875,-0.140869140625,1.0070799589157104,0.3967284858226776,1.0070799589157104,13.333333969116211,143.0,1.0,Rest
312399.96875,485123.53125,712211.0,712001.625,712145.9375,322607.03125,445871.8125,427219.09375,0.06689453125,0.968505859375,-0.1416015625,1.0681151151657104,0.5187987685203552,1.0375975370407104,13.333333969116211,144.0,1.0,Rest
312516.75,484370.90625,712077.6875,711868.5,712012.6875,322450.21875,445148.6875,426735.21875,0.067138671875,0.9658203125,-0.140380859375,1.0070799589157104,0.4882812201976776,1.0375975370407104,13.333333969116211,145.0,1.0,Rest
312133.8125,483315.71875,711938.9375,711729.8125,711873.875,322228.65625,444261.3125,425900.0,0.06494140625,0.965087890625,-0.13720703125,1.0986326932907104,0.3967284858226776,1.0070799589157104,13.333333969116211,146.0,1.0,Rest
311562.78125,482053.75,711797.5,711588.1875,711732.75,321977.875,443271.15625,424856.78125,0.068603515625,0.967529296875,-0.140869140625,1.1291502714157104,0.4272460639476776,1.0681151151657104,13.333333969116211,147.0,1.0,Rest
311478.46875,481050.5,711677.875,711469.125,711613.875,321808.1875,442437.6875,424106.84375,0.067626953125,0.96826171875,-0.138916015625,1.2207030057907104,0.3051757514476776,1.0681151151657104,13.333333969116211,148.0,1.0,Rest
311873.1875,480449.53125,711573.375,711364.5,711508.8125,321713.84375,441813.46875,423759.9375,0.065673828125,0.968994140625,-0.140625,1.1901854276657104,0.2441406100988388,1.0375975370407104,13.333333969116211,149.0,1.0,Rest
312010.0625,479783.625,711461.125,711251.6875,711395.6875,321577.59375,441144.875,423332.59375,0.067626953125,0.970458984375,-0.141845703125,1.2817381620407104,0.1831054538488388,1.0375975370407104,13.333333969116211,150.0,1.0,Rest
311631.4375,478787.25,711341.6875,711132.25,711276.6875,321369.03125,440306.84375,422544.90625,0.065673828125,0.97216796875,-0.14306640625,1.2817381620407104,0.1831054538488388,1.1291502714157104,13.333333969116211,151.0,1.0,Rest
311058.6875,477580.8125,711220.75,711011.625,711156.4375,321126.71875,439363.0,421540.59375,0.0654296875,0.973876953125,-0.1396484375,1.1596678495407104,0.0610351525247097,1.1291502714157104,13.333333969116211,152.0,1.0,Rest
310970.34375,476626.28125,711116.25,710907.1875,711051.75,320965.6875,438570.21875,420822.65625,0.065673828125,0.97314453125,-0.138671875,1.0070799589157104,0.1220703050494194,1.1291502714157104,13.333333969116211,153.0,1.0,Rest
311365.71875,476067.0625,711030.0625,710821.5625,710965.75,320888.46875,437995.5,420514.84375,0.06640625,0.974853515625,-0.14013671875,0.8544921278953552,0.0,1.1901854276657104,13.333333969116211,154.0,1.0,Rest
311502.25,475445.6875,710934.4375,710725.25,710869.9375,320760.59375,437368.0625,420114.75,0.069091796875,0.97607421875,-0.140869140625,0.7324218153953552,-0.1220703050494194,1.2207030057907104,13.333333969116211,155.0,1.0,Rest
311130.65625,474498.84375,710829.5625,710620.375,710765.1875,320558.53125,436565.53125,419352.71875,0.071044921875,0.9736328125,-0.140869140625,0.6103515028953552,-0.0915527269244194,1.0986326932907104,13.333333969116211,156.0,1.0,Rest
311130.65625,474498.84375,710829.5625,710620.375,710765.1875,320558.53125,436565.53125,419352.71875,0.071044921875,0.9736328125,-0.140869140625,0.6103515028953552,-0.0915527269244194,1.0986326932907104,13.333333969116211,157.0,0.0,Rest
311130.65625,474498.84375,710829.5625,710620.375,710765.1875,320558.53125,436565.53125,419352.71875,0.071044921875,0.9736328125,-0.140869140625,0.6103515028953552,-0.0915527269244194,1.0986326932907104,13.333333969116211,158.0,0.0,Rest
311130.65625,474498.84375,710829.5625,710620.375,710765.1875,320558.53125,436565.53125,419352.71875,0.071044921875,0.9736328125,-0.140869140625,0.6103515028953552,-0.0915527269244194,1.0986326932907104,13.333333969116211,159.0,0.0,Rest
311130.65625,474498.84375,710829.5625,710620.375,710765.1875,320558.53125,436565.53125,419352.71875,0.071044921875,0.9736328125,-0.140869140625,0.6103515028953552,-0.0915527269244194,1.0986326932907104,13.333333969116211,160.0,0.0,Rest
311130.65625,474498.84375,710829.5625,710620.375,710765.1875,320558.53125,436565.53125,419352.71875,0.071044921875,0.9736328125,-0.140869140625,0.6103515028953552,-0.0915527269244194,1.0986326932907104,13.333333969116211,161.0,0.0,Rest
311130.65625,474498.84375,710829.5625,710620.375,710765.1875,320558.53125,436565.53125,419352.71875,0.071044921875,0.9736328125,-0.140869140625,0.6103515028953552,-0.0915527269244194,1.0986326932907104,13.333333969116211,162.0,0.0,Rest
311130.65625,474498.84375,710829.5625,710620.375,710765.1875,320558.53125,436565.53125,419352.71875,0.071044921875,0.9736328125,-0.140869140625,0.6103515028953552,-0.0915527269244194,1.0986326932907104,13.333333969116211,163.0,0.0,Rest
311130.65625,474498.84375,710829.5625,710620.375,710765.1875,320558.53125,436565.53125,419352.71875,0.071044921875,0.9736328125,-0.140869140625,0.6103515028953552,-0.0915527269244194,1.0986326932907104,13.333333969116211,164.0,0.0,Rest
311130.65625,474498.84375,710829.5625,710620.375,710765.1875,320558.53125,436565.53125,419352.71875,0.071044921875,0.9736328125,-0.140869140625,0.6103515028953552,-0.0915527269244194,1.0986326932907104,13.333333969116211,165.0,0.0,Rest
311130.65625,474498.84375,710829.5625,710620.375,710765.1875,320558.53125,436565.53125,419352.71875,0.071044921875,0.9736328125,-0.140869140625,0.6103515028953552,-0.0915527269244194,1.0986326932907104,13.333333969116211,166.0,0.0,Rest
311130.65625,474498.84375,710829.5625,710620.375,710765.1875,320558.53125,436565.53125,419352.71875,0.071044921875,0.9736328125,-0.140869140625,0.6103515028953552,-0.0915527269244194,1.0986326932907104,13.333333969116211,167.0,0.0,Rest
311130.65625,474498.84375,710829.5625,710620.375,710765.1875,320558.53125,436565.53125,419352.71875,0.071044921875,0.9736328125,-0.140869140625,0.6103515028953552,-0.0915527269244194,1.0986326932907104,13.333333969116211,168.0,0.0,Rest
311130.65625,474498.84375,710829.5625,710620.375,710765.1875,320558.53125,436565.53125,419352.71875,0.071044921875,0.9736328125,-0.140869140625,0.6103515028953552,-0.0915527269244194,1.0986326932907104,13.333333969116211,169.0,0.0,Rest
311130.65625,474498.84375,710829.5625,710620.375,710765.1875,320558.53125,436565.53125,419352.71875,0.071044921875,0.9736328125,-0.140869140625,0.6103515028953552,-0.0915527269244194,1.0986326932907104,13.333333969116211,170.0,0.0,Rest
311130.65625,474498.84375,710829.5625,710620.375,710765.1875,320558.53125,436565.53125,419352.71875,0.071044921875,0.9736328125,-0.140869140625,0.6103515028953552,-0.0915527269244194,1.0986326932907104,13.333333969116211,171.0,0.0,Rest
311130.65625,474498.84375,710829.5625,710620.375,710765.1875,320558.53125,436565.53125,419352.71875,0.071044921875,0.9736328125,-0.140869140625,0.6103515028953552,-0.0915527269244194,1.0986326932907104,13.333333969116211,172.0,0.0,Rest
311130.65625,474498.84375,710829.5625,710620.375,710765.1875,320558.53125,436565.53125,419352.71875,0.071044921875,0.9736328125,-0.140869140625,0.6103515028953552,-0.0915527269244194,1.0986326932907104,13.333333969116211,173.0,0.0,Rest
311130.65625,474498.84375,710829.5625,710620.375,710765.1875,320558.53125,436565.53125,419352.71875,0.071044921875,0.9736328125,-0.140869140625,0.6103515028953552,-0.0915527269244194,1.0986326932907104,13.333333969116211,174.0,0.0,Rest
311130.65625,474498.84375,710829.5625,710620.375,710765.1875,320558.53125,436565.53125,419352.71875,0.071044921875,0.9736328125,-0.140869140625,0.6103515028953552,-0.0915527269244194,1.0986326932907104,13.333333969116211,175.0,0.0,Rest
311130.65625,474498.84375,710829.5625,710620.375,710765.1875,320558.53125,436565.53125,419352.71875,0.071044921875,0.9736328125,-0.140869140625,0.6103515028953552,-0.0915527269244194,1.0986326932907104,13.333333969116211,176.0,0.0,Rest
311130.65625,474498.84375,710829.5625,710620.375,710765.1875,320558.53125,436565.53125,419352.71875,0.071044921875,0.9736328125,-0.140869140625,0.6103515028953552,-0.0915527269244194,1.0986326932907104,13.333333969116211,177.0,0.0,Rest
311130.65625,474498.84375,710829.5625,710620.375,710765.1875,320558.53125,436565.53125,419352.71875,0.071044921875,0.9736328125,-0.140869140625,0.6103515028953552,-0.0915527269244194,1.0986326932907104,13.333333969116211,178.0,0.0,Rest
311130.65625,474498.84375,710829.5625,710620.375,710765.1875,320558.53125,436565.53125,419352.71875,0.071044921875,0.9736328125,-0.140869140625,0.6103515028953552,-0.0915527269244194,1.0986326932907104,13.333333969116211,179.0,0.0,Rest
311130.65625,474498.84375,710829.5625,710620.375,710765.1875,320558.53125,436565.53125,419352.71875,0.071044921875,0.9736328125,-0.140869140625,0.6103515028953552,-0.0915527269244194,1.0986326932907104,13.333333969116211,180.0,0.0,Rest
311130.65625,474498.84375,710829.5625,710620.375,710765.1875,320558.53125,436565.53125,419352.71875,0.071044921875,0.9736328125,-0.140869140625,0.6103515028953552,-0.0915527269244194,1.0986326932907104,13.333333969116211,181.0,0.0,Rest
311130.65625,474498.84375,710829.5625,710620.375,710765.1875,320558.53125,436565.53125,419352.71875,0.071044921875,0.9736328125,-0.140869140625,0.6103515028953552,-0.0915527269244194,1.0986326932907104,13.333333969116211,182.0,0.0,Rest
311130.65625,474498.84375,710829.5625,710620.375,710765.1875,320558.53125,436565.53125,419352.71875,0.071044921875,0.9736328125,-0.140869140625,0.6103515028953552,-0.0915527269244194,1.0986326932907104,13.333333969116211,183.0,0.0,Rest
311130.65625,474498.84375,710829.5625,710620.375,710765.1875,320558.53125,436565.53125,419352.71875,0.071044921875,0.9736328125,-0.140869140625,0.6103515028953552,-0.0915527269244194,1.0986326932907104,13.333333969116211,184.0,0.0,Rest
311130.65625,474498.84375,710829.5625,710620.375,710765.1875,320558.53125,436565.53125,419352.71875,0.071044921875,0.9736328125,-0.140869140625,0.6103515028953552,-0.0915527269244194,1.0986326932907104,13.333333969116211,185.0,0.0,Rest
311130.65625,474498.84375,710829.5625,710620.375,710765.1875,320558.53125,436565.53125,419352.71875,0.071044921875,0.9736328125,-0.140869140625,0.6103515028953552,-0.0915527269244194,1.0986326932907104,13.333333969116211,186.0,0.0,Rest
311130.65625,474498.84375,710829.5625,710620.375,710765.1875,320558.53125,436565.53125,419352.71875,0.071044921875,0.9736328125,-0.140869140625,0.6103515028953552,-0.0915527269244194,1.0986326932907104,13.333333969116211,187.0,0.0,Rest
311130.65625,474498.84375,710829.5625,710620.375,710765.1875,320558.53125,436565.53125,419352.71875,0.071044921875,0.9736328125,-0.140869140625,0.6103515028953552,-0.0915527269244194,1.0986326932907104,13.333333969116211,188.0,0.0,Rest
311130.65625,474498.84375,710829.5625,710620.375,710765.1875,320558.53125,436565.53125,419352.71875,0.071044921875,0.9736328125,-0.140869140625,0.6103515028953552,-0.0915527269244194,1.0986326932907104,13.333333969116211,189.0,0.0,Rest
311130.65625,474498.84375,710829.5625,710620.375,710765.1875,320558.53125,436565.53125,419352.71875,0.071044921875,0.9736328125,-0.140869140625,0.6103515028953552,-0.0915527269244194,1.0986326932907104,13.333333969116211,190.0,0.0,Rest
311130.65625,474498.84375,710829.5625,710620.375,710765.1875,320558.53125,436565.53125,419352.71875,0.071044921875,0.9736328125,-0.140869140625,0.6103515028953552,-0.0915527269244194,1.0986326932907104,13.333333969116211,191.0,0.0,Rest
311130.65625,474498.84375,710829.5625,710620.375,710765.1875,320558.53125,436565.53125,419352.71875,0.071044921875,0.9736328125,-0.140869140625,0.6103515028953552,-0.0915527269244194,1.0986326932907104,13.333333969116211,192.0,0.0,Rest
311130.65625,474498.84375,710829.5625,710620.375,710765.1875,320558.53125,436565.53125,419352.71875,0.071044921875,0.9736328125,-0.140869140625,0.6103515028953552,-0.0915527269244194,1.0986326932907104,13.333333969116211,193.0,0.0,Rest
311130.65625,474498.84375,710829.5625,710620.375,710765.1875,320558.53125,436565.53125,419352.71875,0.071044921875,0.9736328125,-0.140869140625,0.6103515028953552,-0.0915527269244194,1.0986326932907104,13.333333969116211,194.0,0.0,Rest
311130.65625,474498.84375,710829.5625,710620.375,710765.1875,320558.53125,436565.53125,419352.71875,0.071044921875,0.9736328125,-0.140869140625,0.6103515028953552,-0.0915527269244194,1.0986326932907104,13.333333969116211,195.0,0.0,Rest
311130.65625,474498.84375,710829.5625,710620.375,710765.1875,320558.53125,436565.53125,419352.71875,0.071044921875,0.9736328125,-0.140869140625,0.6103515028953552,-0.0915527269244194,1.0986326932907104,13.333333969116211,196.0,0.0,Rest
311130.65625,474498.84375,710829.5625,710620.375,710765.1875,320558.53125,436565.53125,419352.71875,0.071044921875,0.9736328125,-0.140869140625,0.6103515028953552,-0.0915527269244194,1.0986326932907104,13.333333969116211,197.0,0.0,Rest
311130.65625,474498.84375,710829.5625,710620.375,710765.1875,320558.53125,436565.53125,419352.71875,0.071044921875,0.9736328125,-0.140869140625,0.6103515028953552,-0.0915527269244194,1.0986326932907104,13.333333969116211,198.0,0.0,Rest
311130.65625,474498.84375,710829.5625,710620.375,710765.1875,320558.53125,436565.53125,419352.71875,0.071044921875,0.9736328125,-0.140869140625,0.6103515028953552,-0.0915527269244194,1.0986326932907104,13.333333969116211,199.0,0.0,Rest
311130.65625,474498.84375,710829.5625,710620.375,710765.1875,320558.53125,436565.53125,419352.71875,0.071044921875,0.9736328125,-0.140869140625,0.6103515028953552,-0.0915527269244194,1.0986326932907104,13.333333969116211,200.0,0.0,Rest
311130.65625,474498.84375,710829.5625,710620.375,710765.1875,320558.53125,436565.53125,419352.71875,0.071044921875,0.9736328125,-0.140869140625,0.6103515028953552,-0.0915527269244194,1.0986326932907104,13.333333969116211,201.0,0.0,Rest
311130.65625,474498.84375,710829.5625,710620.375,710765.1875,320558.53125,436565.53125,419352.71875,0.071044921875,0.9736328125,-0.140869140625,0.6103515028953552,-0.0915527269244194,1.0986326932907104,13.333333969116211,202.0,0.0,Rest
311130.65625,474498.84375,710829.5625,710620.375,710765.1875,320558.53125,436565.53125,419352.71875,0.071044921875,0.9736328125,-0.140869140625,0.6103515028953552,-0.0915527269244194,1.0986326932907104,13.333333969116211,203.0,0.0,Rest
311130.65625,474498.84375,710829.5625,710620.375,710765.1875,320558.53125,436565.53125,419352.71875,0.071044921875,0.9736328125,-0.140869140625,0.6103515028953552,-0.0915527269244194,1.0986326932907104,13.333333969116211,204.0,0.0,Rest
311130.65625,474498.84375,710829.5625,710620.375,710765.1875,320558.53125,436565.53125,419352.71875,0.071044921875,0.9736328125,-0.140869140625,0.6103515028953552,-0.0915527269244194,1.0986326932907104,13.333333969116211,205.0,0.0,Rest
311130.65625,474498.84375,710829.5625,710620.375,710765.1875,320558.53125,436565.53125,419352.71875,0.071044921875,0.9736328125,-0.140869140625,0.6103515028953552,-0.0915527269244194,1.0986326932907104,13.333333969116211,206.0,0.0,Rest
311130.65625,474498.84375,710829.5625,710620.375,710765.1875,320558.53125,436565.53125,419352.71875,0.071044921875,0.9736328125,-0.140869140625,0.6103515028953552,-0.0915527269244194,1.0986326932907104,13.333333969116211,207.0,0.0,Rest
311130.65625,474498.84375,710829.5625,710620.375,710765.1875,320558.53125,436565.53125,419352.71875,0.071044921875,0.9736328125,-0.140869140625,0.6103515028953552,-0.0915527269244194,1.0986326932907104,13.333333969116211,208.0,0.0,Rest
311130.65625,474498.84375,710829.5625,710620.375,710765.1875,320558.53125,436565.53125,419352.71875,0.071044921875,0.9736328125,-0.140869140625,0.6103515028953552,-0.0915527269244194,1.0986326932907104,13.333333969116211,209.0,0.0,Rest
311130.65625,474498.84375,710829.5625,710620.375,710765.1875,320558.53125,436565.53125,419352.71875,0.071044921875,0.9736328125,-0.140869140625,0.6103515028953552,-0.0915527269244194,1.0986326932907104,13.333333969116211,210.0,0.0,Rest
311130.65625,474498.84375,710829.5625,710620.375,710765.1875,320558.53125,436565.53125,419352.71875,0.071044921875,0.9736328125,-0.140869140625,0.6103515028953552,-0.0915527269244194,1.0986326932907104,13.333333969116211,211.0,0.0,Rest
311130.65625,474498.84375,710829.5625,710620.375,710765.1875,320558.53125,436565.53125,419352.71875,0.071044921875,0.9736328125,-0.140869140625,0.6103515028953552,-0.0915527269244194,1.0986326932907104,13.333333969116211,212.0,0.0,Rest
311130.65625,474498.84375,710829.5625,710620.375,710765.1875,320558.53125,436565.53125,419352.71875,0.071044921875,0.9736328125,-0.140869140625,0.6103515028953552,-0.0915527269244194,1.0986326932907104,13.333333969116211,213.0,0.0,Rest
311130.65625,474498.84375,710829.5625,710620.375,710765.1875,320558.53125,436565.53125,419352.71875,0.071044921875,0.9736328125,-0.140869140625,0.6103515028953552,-0.0915527269244194,1.0986326932907104,13.333333969116211,214.0,0.0,Rest
311130.65625,474498.84375,710829.5625,710620.375,710765.1875,320558.53125,436565.53125,419352.71875,0.071044921875,0.9736328125,-0.140869140625,0.6103515028953552,-0.0915527269244194,1.0986326932907104,13.333333969116211,215.0,0.0,Rest
311130.65625,474498.84375,710829.5625,710620.375,710765.1875,320558.53125,436565.53125,419352.71875,0.071044921875,0.9736328125,-0.140869140625,0.6103515028953552,-0.0915527269244194,1.0986326932907104,13.333333969116211,216.0,0.0,Rest
311130.65625,474498.84375,710829.5625,710620.375,710765.1875,320558.53125,436565.53125,419352.71875,0.071044921875,0.9736328125,-0.140869140625,0.6103515028953552,-0.0915527269244194,1.0986326932907104,13.333333969116211,217.0,0.0,Rest
311130.65625,474498.84375,710829.5625,710620.375,710765.1875,320558.53125,436565.53125,419352.71875,0.071044921875,0.9736328125,-0.140869140625,0.6103515028953552,-0.0915527269244194,1.0986326932907104,13.333333969116211,218.0,0.0,Rest
311130.65625,474498.84375,710829.5625,710620.375,710765.1875,320558.53125,436565.53125,419352.71875,0.071044921875,0.9736328125,-0.140869140625,0.6103515028953552,-0.0915527269244194,1.0986326932907104,13.333333969116211,219.0,0.0,Rest
311130.65625,474498.84375,710829.5625,710620.375,710765.1875,320558.53125,436565.53125,419352.71875,0.071044921875,0.9736328125,-0.140869140625,0.6103515028953552,-0.0915527269244194,1.0986326932907104,13.333333969116211,220.0,0.0,Rest
311130.65625,474498.84375,710829.5625,710620.375,710765.1875,320558.53125,436565.53125,419352.71875,0.071044921875,0.9736328125,-0.140869140625,0.6103515028953552,-0.0915527269244194,1.0986326932907104,13.333333969116211,221.0,0.0,Rest
311130.65625,474498.84375,710829.5625,710620.375,710765.1875,320558.53125,436565.53125,419352.71875,0.071044921875,0.9736328125,-0.140869140625,0.6103515028953552,-0.0915527269244194,1.0986326932907104,13.333333969116211,222.0,0.0,Rest
311130.65625,474498.84375,710829.5625,710620.375,710765.1875,320558.53125,436565.53125,419352.71875,0.071044921875,0.9736328125,-0.140869140625,0.6103515028953552,-0.0915527269244194,1.0986326932907104,13.333333969116211,223.0,0.0,Rest
311130.65625,474498.84375,710829.5625,710620.375,710765.1875,320558.53125,436565.53125,419352.71875,0.071044921875,0.9736328125,-0.140869140625,0.6103515028953552,-0.0915527269244194,1.0986326932907104,13.333333969116211,224.0,0.0,Rest
307620.46875,434626.21875,708136.0,707928.0,708073.1875,314168.8125,401368.6875,389928.78125,0.071044921875,0.97265625,-0.14453125,-0.8544921278953552,-0.3356933295726776,0.7629393935203552,13.333333969116211,225.0,1.0,Rest
307305.9375,434095.3125,708111.1875,707903.3125,708048.125,314062.5,400927.90625,389481.125,0.0693359375,0.968505859375,-0.144775390625,-0.9460448622703552,-0.3662109076976776,0.6713866591453552,13.333333969116211,226.0,1.0,Rest
306815.53125,433366.1875,708086.5625,707878.6875,708023.625,313932.78125,400395.84375,388834.375,0.0703125,0.9658203125,-0.146484375,-1.0070799589157104,-0.3051757514476776,0.6713866591453552,13.333333969116211,227.0,1.0,Rest
306814.8125,432903.40625,708081.0625,707872.875,708018.0,313893.78125,400022.21875,388488.96875,0.0693359375,0.9677734375,-0.1474609375,-0.9765624403953552,-0.4272460639476776,0.7934569716453552,13.333333969116211,228.0,1.0,Rest
307268.46875,432808.90625,708084.0,707875.875,708021.0625,313917.9375,399839.5625,388527.15625,0.069091796875,0.971435546875,-0.1416015625,-0.8850097060203552,-0.4577636420726776,0.7324218153953552,13.333333969116211,229.0,1.0,Rest
307456.40625,432629.3125,708074.875,707867.0625,708012.0,313889.21875,399593.96875,388462.25,0.070068359375,0.975341796875,-0.140380859375,-0.9155272841453552,-0.4272460639476776,0.6408690810203552,13.333333969116211,230.0,1.0,Rest
307132.46875,432112.53125,708046.25,707838.1875,707983.5,313774.15625,399159.15625,388018.4375,0.069091796875,0.976318359375,-0.13818359375,-1.0681151151657104,-0.4882812201976776,0.4882812201976776,13.333333969116211,231.0,1.0,Rest
306647.875,431410.40625,708023.625,707815.4375,707960.9375,313656.15625,398648.84375,387394.46875,0.069580078125,0.9775390625,-0.140869140625,-1.2512205839157104,-0.5187987685203552,0.6408690810203552,13.333333969116211,232.0,1.0,Rest
306644.84375,430958.65625,708017.625,707809.9375,707955.3125,313620.46875,398287.0,387057.40625,0.069091796875,0.9775390625,-0.14013671875,-1.5869139432907104,-0.5493163466453552,0.7019042372703552,13.333333969116211,233.0,1.0,Rest
307094.84375,430875.21875,708023.125,707815.125,707960.4375,313648.09375,398120.15625,387104.96875,0.0703125,0.978759765625,-0.14208984375,-1.7395018339157104,-0.5493163466453552,0.7629393935203552,13.333333969116211,234.0,1.0,Rest
307280.875,430704.625,708015.4375,707806.75,707952.1875,313619.65625,397891.5625,387048.09375,0.069091796875,0.978515625,-0.14208984375,-1.7089842557907104,-0.6408690810203552,0.8239745497703552,13.333333969116211,235.0,1.0,Rest
306959.03125,430197.25,707992.0625,707783.75,707929.0625,313511.40625,397480.46875,386618.0625,0.06787109375,0.978759765625,-0.14208984375,-1.7089842557907104,-0.6103515028953552,0.9155272841453552,13.333333969116211,236.0,1.0,Rest
306479.0,429505.15625,707970.1875,707762.0625,707907.125,313392.125,396979.59375,385998.90625,0.066162109375,0.979248046875,-0.14404296875,-1.7089842557907104,-0.6103515028953552,0.9765624403953552,13.333333969116211,237.0,1.0,Rest
306477.21875,429063.75,707962.75,707754.4375,707899.625,313351.1875,396621.71875,385669.4375,0.06640625,0.976318359375,-0.14013671875,-1.8920897245407104,-0.5798339247703552,0.9460448622703552,13.333333969116211,238.0,1.0,Rest
306925.75,428985.4375,707964.0625,707755.875,707901.25,313372.71875,396451.3125,385724.15625,0.06591796875,0.974853515625,-0.138671875,-1.8615721464157104,-0.6103515028953552,1.0070799589157104,13.333333969116211,239.0,1.0,Rest
306925.75,428985.4375,707964.0625,707755.875,707901.25,313372.71875,396451.3125,385724.15625,0.06591796875,0.974853515625,-0.138671875,-1.8615721464157104,-0.6103515028953552,1.0070799589157104,13.333333969116211,240.0,0.0,Rest
306925.75,428985.4375,707964.0625,707755.875,707901.25,313372.71875,396451.3125,385724.15625,0.06591796875,0.974853515625,-0.138671875,-1.8615721464157104,-0.6103515028953552,1.0070799589157104,13.333333969116211,241.0,0.0,Rest
306925.75,428985.4375,707964.0625,707755.875,707901.25,313372.71875,396451.3125,385724.15625,0.06591796875,0.974853515625,-0.138671875,-1.8615721464157104,-0.6103515028953552,1.0070799589157104,13.333333969116211,242.0,0.0,Rest
306925.75,428985.4375,707964.0625,707755.875,707901.25,313372.71875,396451.3125,385724.15625,0.06591796875,0.974853515625,-0.138671875,-1.8615721464157104,-0.6103515028953552,1.0070799589157104,13.333333969116211,243.0,0.0,Rest
306773.5,427180.65625,707915.625,707707.5625,707852.75,313136.0625,394844.5625,384402.28125,0.06982421875,0.9638671875,-0.143310546875,-1.4953612089157104,-0.8850097060203552,0.9155272841453552,13.333333969116211,244.0,1.0,Rest
306959.28125,427036.09375,707910.25,707702.125,707847.0625,313109.875,394634.1875,384365.25,0.06982421875,0.96337890625,-0.142578125,-1.3427733182907104,-0.8850097060203552,0.7324218153953552,13.333333969116211,245.0,1.0,Rest
306643.0625,426562.84375,707888.625,707680.75,707825.9375,313002.84375,394239.28125,383956.0625,0.07080078125,0.963134765625,-0.143310546875,-1.0681151151657104,-0.8850097060203552,0.7934569716453552,13.333333969116211,246.0,1.0,Rest
306157.3125,425893.03125,707864.3125,707656.4375,707801.5625,312876.15625,393747.625,383347.09375,0.071044921875,0.965087890625,-0.139404296875,-0.8544921278953552,-0.7934569716453552,0.7324218153953552,13.333333969116211,247.0,1.0,Rest
306154.8125,425480.84375,707859.9375,707652.0625,707797.375,312841.375,393415.125,383036.9375,0.07177734375,0.96826171875,-0.140625,-0.6713866591453552,-0.6408690810203552,0.7019042372703552,13.333333969116211,248.0,1.0,Rest
306610.6875,425440.25,707867.1875,707659.3125,707804.9375,312876.34375,393286.375,383121.78125,0.072021484375,0.968994140625,-0.13916015625,-0.7629393935203552,-0.6408690810203552,0.5798339247703552,13.333333969116211,249.0,1.0,Rest
306791.84375,425304.1875,707859.5,707651.1875,707796.875,312848.8125,393086.65625,383085.75,0.073974609375,0.972412109375,-0.140869140625,-0.8239745497703552,-0.6103515028953552,0.8544921278953552,13.333333969116211,250.0,1.0,Rest
306482.125,424851.6875,707844.75,707636.5,707782.25,312753.125,392720.4375,382695.5,0.073486328125,0.972900390625,-0.142333984375,-0.7934569716453552,-0.4272460639476776,0.7629393935203552,13.333333969116211,251.0,1.0,Rest
306004.59375,424201.71875,707826.9375,707618.625,707764.625,312638.25,392259.53125,382110.0625,0.074462890625,0.973876953125,-0.146484375,-0.7934569716453552,-0.3051757514476776,0.8850097060203552,13.333333969116211,252.0,1.0,Rest
305997.90625,423787.65625,707818.875,707610.5625,707756.25,312593.4375,391928.375,381796.78125,0.073974609375,0.974609375,-0.144287109375,-0.8544921278953552,-0.2746581733226776,0.9460448622703552,13.333333969116211,253.0,1.0,Rest
306447.0,423743.0625,707817.125,707608.9375,707754.8125,312615.1875,391788.375,381867.15625,0.072998046875,0.974365234375,-0.14208984375,-0.8544921278953552,-0.1831054538488388,1.0070799589157104,13.333333969116211,254.0,1.0,Rest
306642.96875,423633.34375,707813.6875,707606.0,707751.5,312602.84375,391607.15625,381856.3125,0.07275390625,0.974365234375,-0.14111328125,-1.0375975370407104,-0.0915527269244194,1.0375975370407104,13.333333969116211,255.0,1.0,Rest
306335.78125,423190.59375,707797.6875,707589.9375,707735.375,312511.28125,391246.75,381474.90625,0.072265625,0.97412109375,-0.14013671875,-1.1596678495407104,0.03051757626235485,1.1596678495407104,13.333333969116211,256.0,1.0,Rest
305853.96875,422543.125,707777.3125,707569.875,707715.375,312395.5,390785.59375,380890.28125,0.071044921875,0.974609375,-0.140869140625,-1.2207030057907104,0.03051757626235485,1.0070799589157104,13.333333969116211,257.0,1.0,Rest
305871.125,422168.5,707778.125,707570.8125,707716.0,312376.46875,390491.25,380615.90625,0.0703125,0.9716796875,-0.142822265625,-1.2512205839157104,0.1220703050494194,0.9765624403953552,13.333333969116211,258.0,1.0,Rest
306317.96875,422134.96875,707782.6875,707575.1875,707720.25,312404.4375,390368.75,380706.375,0.07373046875,0.971923828125,-0.143310546875,-1.3427733182907104,0.1220703050494194,0.9460448622703552,13.333333969116211,259.0,1.0,Rest
306502.0625,422016.875,707778.1875,707570.5,707716.0625,312381.1875,390182.25,380690.5625,0.073486328125,0.971435546875,-0.140380859375,-1.4648436307907104,0.2441406100988388,1.0375975370407104,13.333333969116211,260.0,1.0,Rest
306191.8125,421581.09375,707762.1875,707554.3125,707699.8125,312290.0,389824.0,380312.34375,0.072021484375,0.969482421875,-0.138427734375,-1.6479490995407104,0.3051757514476776,1.0070799589157104,13.333333969116211,261.0,1.0,Rest
305706.15625,420933.53125,707740.6875,707532.8125,707678.375,312171.09375,389364.09375,379729.6875,0.07373046875,0.967041015625,-0.140380859375,-1.6479490995407104,0.3356933295726776,0.9460448622703552,13.333333969116211,262.0,1.0,Rest
305722.09375,420562.5,707736.1875,707528.3125,707673.9375,312145.78125,389064.0625,379444.84375,0.073486328125,0.966552734375,-0.140625,-1.6784666776657104,0.3051757514476776,0.9765624403953552,13.333333969116211,263.0,1.0,Rest
306175.8125,420561.59375,707740.5625,707532.4375,707678.0,312182.4375,388954.96875,379540.96875,0.074951171875,0.9638671875,-0.141845703125,-1.6479490995407104,0.4882812201976776,0.9765624403953552,13.333333969116211,264.0,1.0,Rest
306359.09375,420465.75,707737.4375,707529.375,707675.1875,312166.34375,388782.3125,379534.4375,0.07470703125,0.96533203125,-0.141845703125,-1.5563963651657104,0.5493163466453552,0.9765624403953552,13.333333969116211,265.0,1.0,Rest
306062.4375,420061.375,707726.4375,707518.5625,707664.125,312089.71875,388453.3125,379181.625,0.07470703125,0.965087890625,-0.142333984375,-1.3427733182907104,0.5493163466453552,0.8850097060203552,13.333333969116211,266.0,1.0,Rest
305588.78125,419447.75,707709.125,707501.6875,707646.9375,311984.6875,388021.21875,378623.71875,0.07470703125,0.967529296875,-0.14111328125,-1.2207030057907104,0.5187987685203552,0.8850097060203552,13.333333969116211,267.0,1.0,Rest
305579.21875,419065.375,707701.6875,707494.5,707639.625,311945.0625,387720.09375,378340.3125,0.07373046875,0.970458984375,-0.141845703125,-1.2207030057907104,0.6408690810203552,0.9460448622703552,13.333333969116211,268.0,1.0,Rest
306033.84375,419062.25,707710.6875,707503.125,707648.125,311986.03125,387625.9375,378452.875,0.07275390625,0.971435546875,-0.138916015625,-1.1596678495407104,0.7019042372703552,0.9460448622703552,13.333333969116211,269.0,1.0,Rest
306234.8125,418997.875,707710.6875,707502.5625,707648.125,311979.6875,387479.59375,378466.5625,0.0732421875,0.97265625,-0.137451171875,-1.1291502714157104,0.6408690810203552,0.8544921278953552,13.333333969116211,270.0,1.0,Rest
305936.03125,418604.21875,707700.875,707492.8125,707638.9375,311904.21875,387162.28125,378120.09375,0.072509765625,0.971923828125,-0.138671875,-1.1596678495407104,0.6408690810203552,0.8850097060203552,13.333333969116211,271.0,1.0,Rest
305452.96875,417994.8125,707682.625,707474.6875,707620.5625,311794.25,386733.9375,377559.96875,0.069580078125,0.972900390625,-0.136962890625,-1.3122557401657104,0.7324218153953552,0.8239745497703552,13.333333969116211,272.0,1.0,Rest
305466.46875,417650.5,707683.875,707475.9375,707621.75,311778.59375,386469.625,377305.59375,0.06884765625,0.972412109375,-0.13671875,-1.2512205839157104,0.5798339247703552,0.7019042372703552,13.333333969116211,273.0,1.0,Rest
305917.25,417654.71875,707690.4375,707482.4375,707628.0,311814.375,386381.65625,377421.375,0.070068359375,0.972412109375,-0.136474609375,-1.3427733182907104,0.5798339247703552,0.7019042372703552,13.333333969116211,274.0,1.0,Rest
306107.59375,417573.4375,707690.9375,707483.375,707628.625,311812.21875,386240.40625,377443.5625,0.072998046875,0.971435546875,-0.13623046875,-1.3427733182907104,0.5493163466453552,0.5798339247703552,13.333333969116211,275.0,1.0,Rest
305790.46875,417154.5625,707674.6875,707466.875,707612.25,311721.75,385905.5625,377084.9375,0.073486328125,0.97314453125,-0.135986328125,-1.2817381620407104,0.6103515028953552,0.4272460639476776,13.333333969116211,276.0,1.0,Rest
305299.625,416524.25,707650.375,707442.5,707588.25,311591.65625,385455.75,376508.1875,0.07421875,0.97412109375,-0.1376953125,-1.3427733182907104,0.5187987685203552,0.5187987685203552,13.333333969116211,277.0,1.0,Rest
305294.90625,416156.0625,707644.0,707436.3125,707581.8125,311547.75,385165.375,376228.875,0.07421875,0.97509765625,-0.136474609375,-1.2512205839157104,0.4272460639476776,0.5187987685203552,13.333333969116211,278.0,1.0,Rest
305740.84375,416154.53125,707644.75,707436.9375,707582.6875,311572.78125,385069.0625,376333.46875,0.074951171875,0.9755859375,-0.13232421875,-1.4038084745407104,0.5798339247703552,0.5798339247703552,13.333333969116211,279.0,1.0,Rest
305927.53125,416080.6875,707637.5,707429.25,707575.0625,311548.71875,384913.15625,376336.6875,0.07421875,0.9736328125,-0.13671875,-1.6174315214157104,0.5798339247703552,0.5493163466453552,13.333333969116211,280.0,1.0,Rest
305626.15625,415692.125,707621.8125,707413.8125,707559.5,311467.375,384596.65625,375989.8125,0.07373046875,0.971923828125,-0.134765625,-1.6174315214157104,0.4882812201976776,0.5187987685203552,13.333333969116211,281.0,1.0,Rest
305155.78125,415098.125,707604.25,707396.0625,707542.0,311362.40625,384179.21875,375441.65625,0.07373046875,0.96826171875,-0.13671875,-1.5869139432907104,0.4577636420726776,0.5187987685203552,13.333333969116211,282.0,1.0,Rest
305170.875,414763.8125,707603.4375,707395.3125,707540.8125,311341.9375,383915.625,375190.5,0.07373046875,0.966796875,-0.135498046875,-1.5869139432907104,0.4577636420726776,0.6408690810203552,13.333333969116211,283.0,1.0,Rest
305642.3125,414811.5625,707617.0,707409.0625,707554.8125,311397.0,383856.71875,375334.625,0.073974609375,0.966796875,-0.134765625,-1.4953612089157104,0.4272460639476776,0.5187987685203552,13.333333969116211,284.0,1.0,Rest
305831.875,414759.15625,707618.25,707409.875,707555.75,311394.25,383729.59375,375365.5625,0.072998046875,0.964111328125,-0.134765625,-1.1901854276657104,0.3356933295726776,0.4577636420726776,13.333333969116211,285.0,1.0,Rest
305528.4375,414381.59375,707607.0,707398.5625,707544.3125,311312.78125,383425.96875,375031.96875,0.0732421875,0.965576171875,-0.137451171875,-0.9765624403953552,0.3356933295726776,0.4577636420726776,13.333333969116211,286.0,1.0,Rest
305062.15625,413817.90625,707594.375,707386.3125,707532.0625,311210.59375,383029.78125,374503.59375,0.072021484375,0.96728515625,-0.135986328125,-0.8544921278953552,0.2746581733226776,0.4577636420726776,13.333333969116211,287.0,1.0,Rest
305064.9375,413488.78125,707591.0625,707383.1875,707528.6875,311181.4375,382769.625,374255.21875,0.072021484375,0.9697265625,-0.13623046875,-0.7324218153953552,0.2441406100988388,0.3662109076976776,13.333333969116211,288.0,1.0,Rest
305516.625,413523.21875,707600.625,707392.875,707538.4375,311219.96875,382698.625,374389.59375,0.069580078125,0.970947265625,-0.133056640625,-0.5187987685203552,0.0610351525247097,0.4272460639476776,13.333333969116211,289.0,1.0,Rest
305705.625,413474.84375,707598.625,707390.1875,707536.375,311211.75,382573.5625,374420.34375,0.068603515625,0.97119140625,-0.133056640625,-0.5798339247703552,0.0610351525247097,0.2746581733226776,13.333333969116211,290.0,1.0,Rest
305392.71875,413083.40625,707582.875,707374.75,707520.625,311124.40625,382262.5,374077.03125,0.068115234375,0.96923828125,-0.131103515625,-0.4882812201976776,0.0,0.2441406100988388,13.333333969116211,291.0,1.0,Rest
304917.25,412490.46875,707565.8125,707357.4375,707503.5625,311020.34375,381859.90625,373542.28125,0.068115234375,0.968505859375,-0.134521484375,-0.5493163466453552,-0.2441406100988388,0.1831054538488388,13.333333969116211,292.0,1.0,Rest
304939.15625,412176.5625,707568.5625,707360.25,707506.25,311007.5625,381621.375,373314.65625,0.0693359375,0.968505859375,-0.134765625,-0.4882812201976776,-0.3662109076976776,-0.03051757626235485,13.333333969116211,293.0,1.0,Rest
305401.46875,412223.84375,707578.5625,707370.5,707516.4375,311055.46875,381570.84375,373460.46875,0.07080078125,0.96875,-0.13525390625,-0.4577636420726776,-0.3967284858226776,-0.0610351525247097,13.333333969116211,294.0,1.0,Rest
305595.5625,412181.84375,707577.875,707370.25,707515.8125,311051.28125,381458.375,373499.625,0.07373046875,0.96923828125,-0.137939453125,-0.2441406100988388,-0.6103515028953552,-0.03051757626235485,13.333333969116211,295.0,1.0,Rest
305282.90625,411802.46875,707560.0,707351.5,707497.5,310960.6875,381151.875,373156.75,0.07568359375,0.97119140625,-0.138427734375,-0.1220703050494194,-0.6408690810203552,0.0610351525247097,13.333333969116211,296.0,1.0,Rest
304811.90625,411241.4375,707544.75,707336.1875,707481.8125,310855.375,380760.71875,372627.90625,0.076171875,0.9697265625,-0.138671875,0.0610351525247097,-0.5798339247703552,0.0915527269244194,13.333333969116211,297.0,1.0,Rest
304826.5,410936.3125,707546.8125,707338.75,707484.9375,310841.34375,380527.65625,372402.53125,0.076904296875,0.96875,-0.135498046875,0.1220703050494194,-0.6103515028953552,0.0610351525247097,13.333333969116211,298.0,1.0,Rest
305289.71875,410993.15625,707558.25,707350.5625,707496.6875,310893.1875,380484.65625,372555.40625,0.077392578125,0.968505859375,-0.137939453125,0.1831054538488388,-0.4882812201976776,0.1525878757238388,13.333333969116211,299.0,1.0,Rest
305469.9375,410943.1875,707553.375,707345.375,707491.125,310875.0625,380360.09375,372582.0625,0.074951171875,0.967041015625,-0.135498046875,0.1831054538488388,-0.4577636420726776,0.1220703050494194,13.333333969116211,300.0,1.0,Rest
305159.4375,410558.03125,707536.8125,707328.875,707474.875,310782.4375,380057.09375,372243.28125,0.0732421875,0.96630859375,-0.13623046875,0.2441406100988388,-0.3967284858226776,0.1831054538488388,13.333333969116211,301.0,1.0,Rest
304707.21875,410014.6875,707523.0625,707315.25,707461.1875,310687.21875,379678.375,371729.5625,0.074462890625,0.966064453125,-0.136474609375,0.3967284858226776,-0.5187987685203552,0.1831054538488388,13.333333969116211,302.0,1.0,Rest
304721.625,409716.78125,707522.875,707315.0,707461.0,310668.34375,379443.78125,371502.90625,0.07373046875,0.966064453125,-0.13525390625,0.3356933295726776,-0.5187987685203552,0.1220703050494194,13.333333969116211,303.0,1.0,Rest
305182.15625,409781.78125,707534.3125,707326.625,707472.8125,310716.34375,379401.75,371657.59375,0.074462890625,0.966064453125,-0.13427734375,0.4272460639476776,-0.4882812201976776,-0.03051757626235485,13.333333969116211,304.0,1.0,Rest
305378.125,409761.21875,707535.9375,707327.875,707474.25,310715.71875,379300.0,371706.40625,0.074951171875,0.96630859375,-0.135986328125,0.3662109076976776,-0.5187987685203552,0.0610351525247097,13.333333969116211,305.0,1.0,Rest
305055.8125,409389.125,707516.6875,707308.9375,707454.9375,310620.875,378999.875,371368.96875,0.075927734375,0.96630859375,-0.13525390625,0.4577636420726776,-0.6103515028953552,0.03051757626235485,13.333333969116211,306.0,1.0,Rest
304582.84375,408828.09375,707501.6875,707293.6875,707440.4375,310517.4375,378618.53125,370851.5,0.0751953125,0.96826171875,-0.13330078125,0.3662109076976776,-0.5798339247703552,0.03051757626235485,13.333333969116211,307.0,1.0,Rest
304608.96875,408540.8125,707503.4375,707295.625,707442.0625,310506.0625,378399.59375,370639.40625,0.07568359375,0.9697265625,-0.1376953125,0.4577636420726776,-0.5798339247703552,0.0,13.333333969116211,308.0,1.0,Rest
305060.125,408600.09375,707512.5625,707304.375,707450.6875,310550.0625,378358.625,370796.9375,0.075927734375,0.9716796875,-0.13916015625,0.4577636420726776,-0.5798339247703552,-0.0915527269244194,13.333333969116211,309.0,1.0,Rest
305262.34375,408596.53125,707516.6875,707308.75,707455.1875,310557.9375,378270.9375,370861.9375,0.076416015625,0.97314453125,-0.140625,0.5187987685203552,-0.5798339247703552,-0.0915527269244194,13.333333969116211,310.0,1.0,Rest
304949.25,408237.09375,707501.3125,707293.375,707439.75,310473.6875,377985.71875,370541.15625,0.07666015625,0.974853515625,-0.139892578125,0.4577636420726776,-0.5798339247703552,-0.2136230319738388,13.333333969116211,311.0,1.0,Rest
304490.59375,407696.375,707485.75,707277.8125,707423.875,310370.625,377612.71875,370031.90625,0.076171875,0.976806640625,-0.1396484375,0.4272460639476776,-0.6408690810203552,-0.2441406100988388,13.333333969116211,312.0,1.0,Rest
304511.15625,407414.46875,707487.125,707279.3125,707425.5625,310354.875,377393.9375,369820.90625,0.07275390625,0.97705078125,-0.14111328125,0.3051757514476776,-0.5187987685203552,-0.1831054538488388,13.333333969116211,313.0,1.0,Rest
304963.5625,407473.46875,707493.375,707285.5,707431.75,310395.125,377350.5625,369970.90625,0.072021484375,0.977783203125,-0.14111328125,0.4577636420726776,-0.6103515028953552,-0.3356933295726776,13.333333969116211,314.0,1.0,Rest
304963.5625,407473.46875,707493.375,707285.5,707431.75,310395.125,377350.5625,369970.90625,0.072021484375,0.977783203125,-0.14111328125,0.4577636420726776,-0.6103515028953552,-0.3356933295726776,13.333333969116211,315.0,0.0,Rest
304963.5625,407473.46875,707493.375,707285.5,707431.75,310395.125,377350.5625,369970.90625,0.072021484375,0.977783203125,-0.14111328125,0.4577636420726776,-0.6103515028953552,-0.3356933295726776,13.333333969116211,316.0,0.0,Rest
304963.5625,407473.46875,707493.375,707285.5,707431.75,310395.125,377350.5625,369970.90625,0.072021484375,0.977783203125,-0.14111328125,0.4577636420726776,-0.6103515028953552,-0.3356933295726776,13.333333969116211,317.0,0.0,Rest
304963.5625,407473.46875,707493.375,707285.5,707431.75,310395.125,377350.5625,369970.90625,0.072021484375,0.977783203125,-0.14111328125,0.4577636420726776,-0.6103515028953552,-0.3356933295726776,13.333333969116211,318.0,0.0,Rest
304963.5625,407473.46875,707493.375,707285.5,707431.75,310395.125,377350.5625,369970.90625,0.072021484375,0.977783203125,-0.14111328125,0.4577636420726776,-0.6103515028953552,-0.3356933295726776,13.333333969116211,319.0,0.0,Rest
304963.5625,407473.46875,707493.375,707285.5,707431.75,310395.125,377350.5625,369970.90625,0.072021484375,0.977783203125,-0.14111328125,0.4577636420726776,-0.6103515028953552,-0.3356933295726776,13.333333969116211,320.0,0.0,Rest
304963.5625,407473.46875,707493.375,707285.5,707431.75,310395.125,377350.5625,369970.90625,0.072021484375,0.977783203125,-0.14111328125,0.4577636420726776,-0.6103515028953552,-0.3356933295726776,13.333333969116211,321.0,0.0,Rest
304963.5625,407473.46875,707493.375,707285.5,707431.75,310395.125,377350.5625,369970.90625,0.072021484375,0.977783203125,-0.14111328125,0.4577636420726776,-0.6103515028953552,-0.3356933295726776,13.333333969116211,322.0,0.0,Rest
304963.5625,407473.46875,707493.375,707285.5,707431.75,310395.125,377350.5625,369970.90625,0.072021484375,0.977783203125,-0.14111328125,0.4577636420726776,-0.6103515028953552,-0.3356933295726776,13.333333969116211,323.0,0.0,Rest
304963.5625,407473.46875,707493.375,707285.5,707431.75,310395.125,377350.5625,369970.90625,0.072021484375,0.977783203125,-0.14111328125,0.4577636420726776,-0.6103515028953552,-0.3356933295726776,13.333333969116211,324.0,0.0,Rest
304963.5625,407473.46875,707493.375,707285.5,707431.75,310395.125,377350.5625,369970.90625,0.072021484375,0.977783203125,-0.14111328125,0.4577636420726776,-0.6103515028953552,-0.3356933295726776,13.333333969116211,325.0,0.0,Rest
304963.5625,407473.46875,707493.375,707285.5,707431.75,310395.125,377350.5625,369970.90625,0.072021484375,0.977783203125,-0.14111328125,0.4577636420726776,-0.6103515028953552,-0.3356933295726776,13.333333969116211,326.0,0.0,Rest
304963.5625,407473.46875,707493.375,707285.5,707431.75,310395.125,377350.5625,369970.90625,0.072021484375,0.977783203125,-0.14111328125,0.4577636420726776,-0.6103515028953552,-0.3356933295726776,13.333333969116211,327.0,0.0,Rest
304963.5625,407473.46875,707493.375,707285.5,707431.75,310395.125,377350.5625,369970.90625,0.072021484375,0.977783203125,-0.14111328125,0.4577636420726776,-0.6103515028953552,-0.3356933295726776,13.333333969116211,328.0,0.0,Rest
304963.5625,407473.46875,707493.375,707285.5,707431.75,310395.125,377350.5625,369970.90625,0.072021484375,0.977783203125,-0.14111328125,0.4577636420726776,-0.6103515028953552,-0.3356933295726776,13.333333969116211,329.0,0.0,Rest
304963.5625,407473.46875,707493.375,707285.5,707431.75,310395.125,377350.5625,369970.90625,0.072021484375,0.977783203125,-0.14111328125,0.4577636420726776,-0.6103515028953552,-0.3356933295726776,13.333333969116211,330.0,0.0,Rest
304963.5625,407473.46875,707493.375,707285.5,707431.75,310395.125,377350.5625,369970.90625,0.072021484375,0.977783203125,-0.14111328125,0.4577636420726776,-0.6103515028953552,-0.3356933295726776,13.333333969116211,331.0,0.0,Rest
304963.5625,407473.46875,707493.375,707285.5,707431.75,310395.125,377350.5625,369970.90625,0.072021484375,0.977783203125,-0.14111328125,0.4577636420726776,-0.6103515028953552,-0.3356933295726776,13.333333969116211,332.0,0.0,Rest
304963.5625,407473.46875,707493.375,707285.5,707431.75,310395.125,377350.5625,369970.90625,0.072021484375,0.977783203125,-0.14111328125,0.4577636420726776,-0.6103515028953552,-0.3356933295726776,13.333333969116211,333.0,0.0,Rest
304963.5625,407473.46875,707493.375,707285.5,707431.75,310395.125,377350.5625,369970.90625,0.072021484375,0.977783203125,-0.14111328125,0.4577636420726776,-0.6103515028953552,-0.3356933295726776,13.333333969116211,334.0,0.0,Rest
304963.5625,407473.46875,707493.375,707285.5,707431.75,310395.125,377350.5625,369970.90625,0.072021484375,0.977783203125,-0.14111328125,0.4577636420726776,-0.6103515028953552,-0.3356933295726776,13.333333969116211,335.0,0.0,Rest
304963.5625,407473.46875,707493.375,707285.5,707431.75,310395.125,377350.5625,369970.90625,0.072021484375,0.977783203125,-0.14111328125,0.4577636420726776,-0.6103515028953552,-0.3356933295726776,13.333333969116211,336.0,0.0,Rest
304963.5625,407473.46875,707493.375,707285.5,707431.75,310395.125,377350.5625,369970.90625,0.072021484375,0.977783203125,-0.14111328125,0.4577636420726776,-0.6103515028953552,-0.3356933295726776,13.333333969116211,337.0,0.0,Rest
304963.5625,407473.46875,707493.375,707285.5,707431.75,310395.125,377350.5625,369970.90625,0.072021484375,0.977783203125,-0.14111328125,0.4577636420726776,-0.6103515028953552,-0.3356933295726776,13.333333969116211,338.0,0.0,Rest
304963.5625,407473.46875,707493.375,707285.5,707431.75,310395.125,377350.5625,369970.90625,0.072021484375,0.977783203125,-0.14111328125,0.4577636420726776,-0.6103515028953552,-0.3356933295726776,13.333333969116211,339.0,0.0,Rest
304963.5625,407473.46875,707493.375,707285.5,707431.75,310395.125,377350.5625,369970.90625,0.072021484375,0.977783203125,-0.14111328125,0.4577636420726776,-0.6103515028953552,-0.3356933295726776,13.333333969116211,340.0,0.0,Rest
304963.5625,407473.46875,707493.375,707285.5,707431.75,310395.125,377350.5625,369970.90625,0.072021484375,0.977783203125,-0.14111328125,0.4577636420726776,-0.6103515028953552,-0.3356933295726776,13.333333969116211,341.0,0.0,Rest
303960.40625,401461.59375,707394.8125,707186.875,707333.125,309576.59375,372178.28125,365524.96875,0.07275390625,0.9658203125,-0.137939453125,0.0610351525247097,-0.9765624403953552,0.2136230319738388,13.333333969116211,342.0,1.0,Rest
303985.71875,401212.75,707395.125,707187.125,707333.5,309573.8125,371987.9375,365341.59375,0.072509765625,0.963134765625,-0.134521484375,0.2746581733226776,-1.0070799589157104,0.0915527269244194,13.333333969116211,343.0,1.0,Rest
304446.78125,401323.71875,707404.25,707196.375,707342.8125,309629.4375,371974.71875,365531.59375,0.0732421875,0.959228515625,-0.133544921875,0.5493163466453552,-1.0070799589157104,-0.1525878757238388,13.333333969116211,344.0,1.0,Rest
304637.46875,401343.375,707401.375,707193.875,707339.875,309628.53125,371894.6875,365605.09375,0.073486328125,0.95751953125,-0.136962890625,0.6713866591453552,-0.9460448622703552,-0.1525878757238388,13.333333969116211,345.0,1.0,Rest
304331.4375,401040.28125,707391.0625,707183.1875,707329.125,309554.5,371649.28125,365321.03125,0.07275390625,0.9560546875,-0.1376953125,0.8544921278953552,-0.9765624403953552,-0.3967284858226776,13.333333969116211,346.0,1.0,Rest
303861.15625,400528.78125,707370.25,707162.75,707308.9375,309447.5,371298.78125,364826.34375,0.07275390625,0.956298828125,-0.140625,1.0070799589157104,-0.9765624403953552,-0.4272460639476776,13.333333969116211,347.0,1.0,Rest
303897.375,400301.6875,707375.4375,707168.125,707314.375,309443.71875,371131.34375,364652.71875,0.072021484375,0.958984375,-0.139892578125,1.2207030057907104,-1.0070799589157104,-0.4272460639476776,13.333333969116211,348.0,1.0,Rest
304357.625,400423.65625,707390.1875,707182.375,707328.875,309492.0,371145.90625,364845.65625,0.070556640625,0.96484375,-0.138671875,1.4038084745407104,-1.0375975370407104,-0.4882812201976776,13.333333969116211,349.0,1.0,Rest
304531.90625,400429.8125,707385.625,707177.6875,707324.1875,309474.03125,371075.625,364909.0625,0.07177734375,0.96826171875,-0.136474609375,1.5869139432907104,-1.1596678495407104,-0.5187987685203552,13.333333969116211,350.0,1.0,Rest
304228.96875,400122.4375,707372.1875,707164.375,707310.625,309398.0625,370838.78125,364619.90625,0.07421875,0.970947265625,-0.138427734375,1.6479490995407104,-1.1901854276657104,-0.5798339247703552,13.333333969116211,351.0,1.0,Rest
303773.09375,399626.40625,707357.3125,707149.9375,707296.375,309306.75,370512.1875,364147.84375,0.07421875,0.9736328125,-0.140380859375,1.6479490995407104,-1.1291502714157104,-0.5798339247703552,13.333333969116211,352.0,1.0,Rest
303791.34375,399373.21875,707357.375,707149.5625,707296.25,309287.1875,370327.5625,363962.875,0.075439453125,0.9736328125,-0.138916015625,1.4343260526657104,-1.0070799589157104,-0.5798339247703552,13.333333969116211,353.0,1.0,Rest
304266.34375,399495.53125,707370.6875,707162.625,707309.125,309348.78125,370348.21875,364166.4375,0.074951171875,0.975830078125,-0.13916015625,1.2817381620407104,-1.1291502714157104,-0.5798339247703552,13.333333969116211,354.0,1.0,Rest
304266.34375,399495.53125,707370.6875,707162.625,707309.125,309348.78125,370348.21875,364166.4375,0.074951171875,0.975830078125,-0.13916015625,1.2817381620407104,-1.1291502714157104,-0.5798339247703552,13.333333969116211,355.0,0.0,Rest
304266.34375,399495.53125,707370.6875,707162.625,707309.125,309348.78125,370348.21875,364166.4375,0.074951171875,0.975830078125,-0.13916015625,1.2817381620407104,-1.1291502714157104,-0.5798339247703552,13.333333969116211,356.0,0.0,Rest
304266.34375,399495.53125,707370.6875,707162.625,707309.125,309348.78125,370348.21875,364166.4375,0.074951171875,0.975830078125,-0.13916015625,1.2817381620407104,-1.1291502714157104,-0.5798339247703552,13.333333969116211,357.0,0.0,Rest
304266.34375,399495.53125,707370.6875,707162.625,707309.125,309348.78125,370348.21875,364166.4375,0.074951171875,0.975830078125,-0.13916015625,1.2817381620407104,-1.1291502714157104,-0.5798339247703552,13.333333969116211,358.0,0.0,Rest
304266.34375,399495.53125,707370.6875,707162.625,707309.125,309348.78125,370348.21875,364166.4375,0.074951171875,0.975830078125,-0.13916015625,1.2817381620407104,-1.1291502714157104,-0.5798339247703552,13.333333969116211,359.0,0.0,Rest
304266.34375,399495.53125,707370.6875,707162.625,707309.125,309348.78125,370348.21875,364166.4375,0.074951171875,0.975830078125,-0.13916015625,1.2817381620407104,-1.1291502714157104,-0.5798339247703552,13.333333969116211,360.0,0.0,Rest
304266.34375,399495.53125,707370.6875,707162.625,707309.125,309348.78125,370348.21875,364166.4375,0.074951171875,0.975830078125,-0.13916015625,1.2817381620407104,-1.1291502714157104,-0.5798339247703552,13.333333969116211,361.0,0.0,Rest
303621.5625,397841.21875,707327.875,707120.0625,707266.25,309084.6875,368960.625,362872.8125,0.0771484375,0.970703125,-0.1416015625,1.2512205839157104,-0.7324218153953552,-0.6713866591453552,13.333333969116211,362.0,1.0,Rest
303642.84375,397608.6875,707328.25,707120.4375,707267.0625,309068.59375,368788.34375,362696.3125,0.07568359375,0.971923828125,-0.1435546875,1.1901854276657104,-0.7019042372703552,-0.7629393935203552,13.333333969116211,363.0,1.0,Rest
304110.4375,397744.46875,707341.8125,707134.6875,707280.75,309128.75,368814.4375,362904.375,0.074951171875,0.97509765625,-0.13916015625,1.1596678495407104,-0.6408690810203552,-0.7019042372703552,13.333333969116211,364.0,1.0,Rest
304298.1875,397781.9375,707342.375,707134.8125,707281.375,309130.375,368767.5,362994.03125,0.07275390625,0.974853515625,-0.140625,1.0375975370407104,-0.6408690810203552,-0.7324218153953552,13.333333969116211,365.0,1.0,Rest
303983.375,397484.75,707330.4375,707122.75,707269.375,309052.5,368538.09375,362714.65625,0.068359375,0.97607421875,-0.139404296875,0.9765624403953552,-0.6408690810203552,-0.6103515028953552,13.333333969116211,366.0,1.0,Rest
303521.15625,397008.3125,707320.25,707112.5,707259.375,308960.21875,368225.6875,362250.8125,0.071044921875,0.972900390625,-0.13818359375,0.8239745497703552,-0.6408690810203552,-0.7324218153953552,13.333333969116211,367.0,1.0,Rest
303538.65625,396771.5625,707317.25,707109.1875,707256.5,308945.65625,368047.15625,362066.53125,0.07763671875,0.9716796875,-0.138916015625,0.6408690810203552,-0.6103515028953552,-0.7324218153953552,13.333333969116211,368.0,1.0,Rest
304008.59375,396913.625,707328.6875,707120.375,707267.625,309010.46875,368072.53125,362273.96875,0.080078125,0.9638671875,-0.140625,0.4577636420726776,-0.5493163466453552,-0.5798339247703552,13.333333969116211,369.0,1.0,Rest
304201.8125,396966.8125,707332.0625,707124.375,707271.0,309023.6875,368036.96875,362376.5,0.07958984375,0.95849609375,-0.143798828125,0.3967284858226776,-0.4272460639476776,-0.4272460639476776,13.333333969116211,370.0,1.0,Rest
303889.3125,396665.25,707317.75,707110.375,707256.6875,308941.90625,367801.8125,362092.65625,0.075927734375,0.95556640625,-0.146728515625,0.6103515028953552,-0.2441406100988388,-0.2746581733226776,13.333333969116211,371.0,1.0,Rest
303417.625,396171.53125,707300.3125,707092.625,707239.5625,308839.6875,367473.5,361619.25,0.07421875,0.957763671875,-0.14990234375,0.9765624403953552,-0.1525878757238388,-0.2746581733226776,13.333333969116211,372.0,1.0,Rest
303447.75,395950.1875,707303.4375,707095.75,707242.875,308833.0,367311.59375,361458.40625,0.071533203125,0.9609375,-0.14794921875,1.2817381620407104,-0.1831054538488388,-0.3662109076976776,13.333333969116211,373.0,1.0,Rest
303930.8125,396107.1875,707323.0625,707115.375,707262.25,308902.375,367351.46875,361689.96875,0.069091796875,0.966552734375,-0.146240234375,1.3122557401657104,-0.1831054538488388,-0.5493163466453552,13.333333969116211,374.0,1.0,Rest
304128.5,396155.375,707325.375,707117.4375,707264.5,308909.09375,367316.15625,361794.5625,0.06787109375,0.9716796875,-0.14404296875,1.3732908964157104,-0.1220703050494194,-0.5493163466453552,13.333333969116211,375.0,1.0,Rest
303816.46875,395858.625,707310.1875,707102.5,707249.375,308828.625,367091.5625,361517.9375,0.066650390625,0.976318359375,-0.14404296875,1.2512205839157104,-0.1831054538488388,-0.7019042372703552,13.333333969116211,376.0,1.0,Rest
303353.96875,395373.84375,707293.1875,707085.6875,707232.75,308736.71875,366781.0625,361057.9375,0.0673828125,0.9794921875,-0.14208984375,1.0070799589157104,-0.2441406100988388,-0.8544921278953552,13.333333969116211,377.0,1.0,Rest
303387.40625,395157.3125,707296.5625,707088.8125,707235.5,308734.8125,366628.8125,360896.90625,0.068603515625,0.98046875,-0.141357421875,0.8850097060203552,-0.3051757514476776,-0.7934569716453552,13.333333969116211,378.0,1.0,Rest
303851.59375,395293.75,707308.375,707100.75,707247.25,308792.59375,366661.34375,361106.84375,0.06884765625,0.980224609375,-0.142822265625,0.7019042372703552,-0.4272460639476776,-0.8239745497703552,13.333333969116211,379.0,1.0,Rest
304041.9375,395339.875,707311.0,707103.125,707250.0,308801.0625,366633.90625,361209.65625,0.06884765625,0.979736328125,-0.143798828125,0.6103515028953552,-0.4882812201976776,-0.8544921278953552,13.333333969116211,380.0,1.0,Rest
303730.53125,395047.6875,707298.5625,707091.0625,707237.75,308726.15625,366412.96875,360934.09375,0.0703125,0.975830078125,-0.143798828125,0.4577636420726776,-0.5493163466453552,-0.8239745497703552,13.333333969116211,381.0,1.0,Rest
303276.1875,394578.3125,707289.25,707081.75,707228.75,308645.78125,366117.375,360485.71875,0.06689453125,0.974853515625,-0.140625,0.2746581733226776,-0.7019042372703552,-0.6713866591453552,13.333333969116211,382.0,1.0,Rest
303304.59375,394363.65625,707292.9375,707085.25,707232.5,308647.03125,365970.40625,360333.84375,0.0693359375,0.97412109375,-0.14404296875,0.1220703050494194,-0.6408690810203552,-0.5493163466453552,13.333333969116211,383.0,1.0,Rest
303755.40625,394486.5,707297.8125,707090.0625,707237.0625,308694.3125,365977.5625,360530.09375,0.069091796875,0.973388671875,-0.14453125,0.03051757626235485,-0.6713866591453552,-0.6103515028953552,13.333333969116211,384.0,1.0,Rest
303954.5,394545.6875,707301.75,707094.0,707240.875,308710.25,365948.9375,360641.65625,0.06982421875,0.973388671875,-0.142822265625,-0.0915527269244194,-0.7019042372703552,-0.6408690810203552,13.333333969116211,385.0,1.0,Rest
303654.53125,394278.25,707292.1875,707084.5,707231.5,308644.4375,365743.65625,360383.71875,0.06884765625,0.974365234375,-0.142333984375,-0.0915527269244194,-0.6713866591453552,-0.5798339247703552,13.333333969116211,386.0,1.0,Rest
303197.3125,393819.59375,707281.1875,707073.75,707220.9375,308556.5625,365447.03125,359932.21875,0.0703125,0.973876953125,-0.142333984375,-0.2136230319738388,-0.7019042372703552,-0.5798339247703552,13.333333969116211,387.0,1.0,Rest
303215.09375,393601.1875,707278.0625,707070.5625,707217.5625,308535.8125,365282.15625,359757.0625,0.071533203125,0.97314453125,-0.14306640625,-0.3051757514476776,-0.7324218153953552,-0.4882812201976776,13.333333969116211,388.0,1.0,Rest
303676.34375,393749.34375,707288.0,707080.375,707227.0,308587.40625,365311.21875,359965.375,0.071044921875,0.97314453125,-0.143798828125,-0.3051757514476776,-0.7019042372703552,-0.3662109076976776,13.333333969116211,389.0,1.0,Rest
303861.78125,393801.90625,707286.75,707079.3125,707225.5625,308586.78125,365274.28125,360062.40625,0.071533203125,0.973388671875,-0.143310546875,-0.3967284858226776,-0.7324218153953552,-0.3051757514476776,13.333333969116211,390.0,1.0,Rest
303554.40625,393528.9375,707274.6875,707067.3125,707213.875,308517.375,365065.25,359803.75,0.071533203125,0.974609375,-0.14208984375,-0.4882812201976776,-0.7019042372703552,-0.2746581733226776,13.333333969116211,391.0,1.0,Rest
303103.4375,393080.75,707266.0625,707058.6875,707205.3125,308443.625,364778.53125,359369.84375,0.070068359375,0.97265625,-0.14111328125,-0.5798339247703552,-0.6103515028953552,-0.1220703050494194,13.333333969116211,392.0,1.0,Rest
303132.6875,392885.03125,707271.4375,707063.875,707210.375,308441.125,364631.90625,359220.09375,0.072265625,0.97119140625,-0.140380859375,-0.5798339247703552,-0.4882812201976776,0.0,13.333333969116211,393.0,1.0,Rest
303595.625,393040.0625,707280.1875,707073.0,707219.25,308496.125,364660.0625,359432.96875,0.072021484375,0.969482421875,-0.140625,-0.5187987685203552,-0.4882812201976776,0.1525878757238388,13.333333969116211,394.0,1.0,Rest
303793.5625,393106.0625,707284.6875,707077.1875,707223.8125,308512.90625,364640.21875,359549.71875,0.0703125,0.96923828125,-0.139892578125,-0.4272460639476776,-0.4577636420726776,0.2441406100988388,13.333333969116211,395.0,1.0,Rest
303496.84375,392838.90625,707276.125,707068.5,707215.375,308450.78125,364442.625,359299.21875,0.068603515625,0.96728515625,-0.14208984375,-0.4272460639476776,-0.4882812201976776,0.2441406100988388,13.333333969116211,396.0,1.0,Rest
303033.15625,392367.46875,707262.1875,707054.625,707201.5625,308361.8125,364144.71875,358848.5,0.068115234375,0.966796875,-0.14306640625,-0.4882812201976776,-0.4882812201976776,0.1831054538488388,13.333333969116211,397.0,1.0,Rest
303058.09375,392150.75,707264.375,707057.3125,707203.875,308355.46875,363996.65625,358693.03125,0.069580078125,0.96923828125,-0.13916015625,-0.4577636420726776,-0.5187987685203552,0.3356933295726776,13.333333969116211,398.0,1.0,Rest
303517.9375,392288.34375,707275.5625,707068.25,707215.125,308416.90625,364041.1875,358919.15625,0.068603515625,0.9697265625,-0.139404296875,-0.3051757514476776,-0.5798339247703552,0.3662109076976776,13.333333969116211,399.0,1.0,Rest
303714.96875,392359.21875,707279.4375,707071.625,707218.8125,308426.625,364029.8125,359037.34375,0.0703125,0.968017578125,-0.13916015625,-0.2441406100988388,-0.5798339247703552,0.3356933295726776,13.333333969116211,400.0,1.0,Rest
303399.09375,392078.5,707264.6875,707057.125,707203.75,308342.0625,363819.1875,358766.625,0.0703125,0.970947265625,-0.1396484375,-0.3051757514476776,-0.6713866591453552,0.2746581733226776,13.333333969116211,401.0,1.0,Rest
302944.75,391619.65625,707251.8125,707043.9375,707190.5625,308253.1875,363530.84375,358321.375,0.0703125,0.969970703125,-0.13818359375,-0.2441406100988388,-0.7324218153953552,0.2441406100988388,13.333333969116211,402.0,1.0,Rest
302976.03125,391417.40625,707254.625,707047.125,707194.125,308248.625,363391.625,358172.25,0.068359375,0.97119140625,-0.138916015625,-0.2441406100988388,-0.7019042372703552,0.2746581733226776,13.333333969116211,403.0,1.0,Rest
303449.8125,391583.28125,707269.875,707062.3125,707209.25,308320.25,363446.90625,358407.75,0.068603515625,0.97314453125,-0.138427734375,-0.1831054538488388,-0.7324218153953552,0.2441406100988388,13.333333969116211,404.0,1.0,Rest
303637.1875,391646.03125,707273.6875,707065.625,707212.6875,308330.78125,363437.15625,358530.3125,0.070556640625,0.974365234375,-0.137451171875,-0.2746581733226776,-0.7629393935203552,0.2441406100988388,13.333333969116211,405.0,1.0,Rest
303324.625,391369.78125,707261.8125,707053.8125,707200.625,308250.96875,363230.0,358274.15625,0.069091796875,0.97412109375,-0.13720703125,-0.2746581733226776,-0.8544921278953552,0.2441406100988388,13.333333969116211,406.0,1.0,Rest
302862.84375,390911.09375,707246.125,707038.4375,707185.4375,308156.90625,362927.0,357826.40625,0.06884765625,0.973388671875,-0.13818359375,-0.2746581733226776,-0.7934569716453552,0.2441406100988388,13.333333969116211,407.0,1.0,Rest
302891.90625,390713.78125,707246.875,707039.0,707186.3125,308151.71875,362781.4375,357677.09375,0.072021484375,0.973388671875,-0.1357421875,-0.2441406100988388,-0.8239745497703552,0.1831054538488388,13.333333969116211,408.0,1.0,Rest
303365.75,390885.09375,707260.625,707053.0625,707200.0,308219.9375,362836.5,357913.3125,0.071533203125,0.9716796875,-0.138916015625,-0.3051757514476776,-0.8239745497703552,0.1831054538488388,13.333333969116211,409.0,1.0,Rest
303570.78125,390974.75,707264.5625,707056.6875,707203.9375,308243.625,362829.625,358042.0625,0.07373046875,0.969970703125,-0.1396484375,-0.3356933295726776,-0.9155272841453552,0.2441406100988388,13.333333969116211,410.0,1.0,Rest
303267.21875,390727.46875,707251.6875,707043.4375,707191.5,308177.8125,362637.9375,357795.84375,0.07470703125,0.969970703125,-0.139892578125,-0.3356933295726776,-0.8544921278953552,0.1525878757238388,13.333333969116211,411.0,1.0,Rest
302812.0625,390279.90625,707239.25,707031.375,707178.5,308091.0,362353.4375,357359.53125,0.0732421875,0.96826171875,-0.137939453125,-0.3662109076976776,-0.7934569716453552,0.1525878757238388,13.333333969116211,412.0,1.0,Rest
302832.1875,390072.375,707239.875,707032.75,707179.625,308074.03125,362202.71875,357205.9375,0.072509765625,0.96728515625,-0.140380859375,-0.2746581733226776,-0.8239745497703552,0.1831054538488388,13.333333969116211,413.0,1.0,Rest
303294.40625,390235.0,707251.9375,707044.25,707191.25,308135.1875,362251.96875,357437.84375,0.072265625,0.966796875,-0.138916015625,-0.1220703050494194,-0.8850097060203552,0.1831054538488388,13.333333969116211,414.0,1.0,Rest
303484.21875,390302.25,707256.0,707048.5625,707195.75,308149.9375,362243.90625,357560.0625,0.074462890625,0.965087890625,-0.135498046875,-0.0915527269244194,-0.9155272841453552,0.1220703050494194,13.333333969116211,415.0,1.0,Rest
303176.75,390033.84375,707244.375,707036.5625,707183.9375,308078.59375,362046.59375,357307.21875,0.073486328125,0.96533203125,-0.139404296875,0.0,-0.9155272841453552,0.1525878757238388,13.333333969116211,416.0,1.0,Rest
302722.125,389591.0,707229.25,707021.375,707168.875,307989.15625,361761.40625,356870.75,0.072509765625,0.967041015625,-0.139892578125,0.2441406100988388,-0.9765624403953552,0.0915527269244194,13.333333969116211,417.0,1.0,Rest
302757.34375,389399.40625,707233.25,707025.3125,707172.8125,307986.75,361631.65625,356732.15625,0.072509765625,0.9677734375,-0.13818359375,0.3356933295726776,-0.8544921278953552,0.0915527269244194,13.333333969116211,418.0,1.0,Rest
303227.90625,389572.25,707246.875,707039.0625,707186.5,308054.34375,361693.8125,356970.6875,0.072509765625,0.971435546875,-0.14111328125,0.4577636420726776,-0.9460448622703552,0.0915527269244194,13.333333969116211,419.0,1.0,Rest
303412.34375,389644.21875,707246.625,707038.8125,707186.25,308060.96875,361682.625,357086.65625,0.068603515625,0.9697265625,-0.142333984375,0.4577636420726776,-0.9155272841453552,0.0610351525247097,13.333333969116211,420.0,1.0,Rest
303103.0,389385.65625,707235.625,707027.9375,707175.1875,307992.03125,361490.9375,356836.5,0.068359375,0.970947265625,-0.138427734375,0.6713866591453552,-0.9460448622703552,-0.1220703050494194,13.333333969116211,421.0,1.0,Rest
302635.3125,388921.09375,707222.375,707014.6875,707161.5625,307897.09375,361200.8125,356394.375,0.0712890625,0.97509765625,-0.1376953125,0.7629393935203552,-1.0375975370407104,-0.1220703050494194,13.333333969116211,422.0,1.0,Rest
302672.9375,388733.4375,707224.8125,707017.25,707164.1875,307893.78125,361071.15625,356261.625,0.07275390625,0.975830078125,-0.1357421875,0.7019042372703552,-1.0681151151657104,-0.0915527269244194,13.333333969116211,423.0,1.0,Rest
303138.03125,388897.46875,707233.625,707025.75,707173.125,307953.0625,361121.3125,356493.4375,0.072021484375,0.974853515625,-0.138427734375,0.6408690810203552,-1.0986326932907104,-0.1525878757238388,13.333333969116211,424.0,1.0,Rest
303333.3125,388973.9375,707234.8125,707026.6875,707174.0625,307969.15625,361120.53125,356620.125,0.072021484375,0.9736328125,-0.1396484375,0.5187987685203552,-1.0986326932907104,-0.1831054538488388,13.333333969116211,425.0,1.0,Rest
303035.03125,388727.0625,707224.6875,707016.9375,707164.25,307901.90625,360936.25,356377.46875,0.07177734375,0.971923828125,-0.138671875,0.6103515028953552,-1.0986326932907104,-0.2441406100988388,6.6666669845581055,426.0,1.0,Rest
303035.03125,388727.0625,707224.6875,707016.9375,707164.25,307901.90625,360936.25,356377.46875,0.07177734375,0.971923828125,-0.138671875,0.6103515028953552,-1.0986326932907104,-0.2441406100988388,6.6666669845581055,427.0,0.0,Rest
303035.03125,388727.0625,707224.6875,707016.9375,707164.25,307901.90625,360936.25,356377.46875,0.07177734375,0.971923828125,-0.138671875,0.6103515028953552,-1.0986326932907104,-0.2441406100988388,6.6666669845581055,428.0,0.0,Rest
303035.03125,388727.0625,707224.6875,707016.9375,707164.25,307901.90625,360936.25,356377.46875,0.07177734375,0.971923828125,-0.138671875,0.6103515028953552,-1.0986326932907104,-0.2441406100988388,6.6666669845581055,429.0,0.0,Rest
303035.03125,388727.0625,707224.6875,707016.9375,707164.25,307901.90625,360936.25,356377.46875,0.07177734375,0.971923828125,-0.138671875,0.6103515028953552,-1.0986326932907104,-0.2441406100988388,6.6666669845581055,430.0,0.0,Rest
303035.03125,388727.0625,707224.6875,707016.9375,707164.25,307901.90625,360936.25,356377.46875,0.07177734375,0.971923828125,-0.138671875,0.6103515028953552,-1.0986326932907104,-0.2441406100988388,6.6666669845581055,431.0,0.0,Rest
303035.03125,388727.0625,707224.6875,707016.9375,707164.25,307901.90625,360936.25,356377.46875,0.07177734375,0.971923828125,-0.138671875,0.6103515028953552,-1.0986326932907104,-0.2441406100988388,6.6666669845581055,432.0,0.0,Rest
303035.03125,388727.0625,707224.6875,707016.9375,707164.25,307901.90625,360936.25,356377.46875,0.07177734375,0.971923828125,-0.138671875,0.6103515028953552,-1.0986326932907104,-0.2441406100988388,6.6666669845581055,433.0,0.0,Rest
303035.03125,388727.0625,707224.6875,707016.9375,707164.25,307901.90625,360936.25,356377.46875,0.07177734375,0.971923828125,-0.138671875,0.6103515028953552,-1.0986326932907104,-0.2441406100988388,6.6666669845581055,434.0,0.0,Rest
303035.03125,388727.0625,707224.6875,707016.9375,707164.25,307901.90625,360936.25,356377.46875,0.07177734375,0.971923828125,-0.138671875,0.6103515028953552,-1.0986326932907104,-0.2441406100988388,6.6666669845581055,435.0,0.0,Rest
303035.03125,388727.0625,707224.6875,707016.9375,707164.25,307901.90625,360936.25,356377.46875,0.07177734375,0.971923828125,-0.138671875,0.6103515028953552,-1.0986326932907104,-0.2441406100988388,6.6666669845581055,436.0,0.0,Rest
303035.03125,388727.0625,707224.6875,707016.9375,707164.25,307901.90625,360936.25,356377.46875,0.07177734375,0.971923828125,-0.138671875,0.6103515028953552,-1.0986326932907104,-0.2441406100988388,6.6666669845581055,437.0,0.0,Rest
303035.03125,388727.0625,707224.6875,707016.9375,707164.25,307901.90625,360936.25,356377.46875,0.07177734375,0.971923828125,-0.138671875,0.6103515028953552,-1.0986326932907104,-0.2441406100988388,6.6666669845581055,438.0,0.0,Rest
303035.03125,388727.0625,707224.6875,707016.9375,707164.25,307901.90625,360936.25,356377.46875,0.07177734375,0.971923828125,-0.138671875,0.6103515028953552,-1.0986326932907104,-0.2441406100988388,6.6666669845581055,439.0,0.0,Rest
303035.03125,388727.0625,707224.6875,707016.9375,707164.25,307901.90625,360936.25,356377.46875,0.07177734375,0.971923828125,-0.138671875,0.6103515028953552,-1.0986326932907104,-0.2441406100988388,6.6666669845581055,440.0,0.0,Rest
303035.03125,388727.0625,707224.6875,707016.9375,707164.25,307901.90625,360936.25,356377.46875,0.07177734375,0.971923828125,-0.138671875,0.6103515028953552,-1.0986326932907104,-0.2441406100988388,6.6666669845581055,441.0,0.0,Rest
303035.03125,388727.0625,707224.6875,707016.9375,707164.25,307901.90625,360936.25,356377.46875,0.07177734375,0.971923828125,-0.138671875,0.6103515028953552,-1.0986326932907104,-0.2441406100988388,6.6666669845581055,442.0,0.0,Rest
303035.03125,388727.0625,707224.6875,707016.9375,707164.25,307901.90625,360936.25,356377.46875,0.07177734375,0.971923828125,-0.138671875,0.6103515028953552,-1.0986326932907104,-0.2441406100988388,6.6666669845581055,443.0,0.0,Rest
303035.03125,388727.0625,707224.6875,707016.9375,707164.25,307901.90625,360936.25,356377.46875,0.07177734375,0.971923828125,-0.138671875,0.6103515028953552,-1.0986326932907104,-0.2441406100988388,6.6666669845581055,444.0,0.0,Rest
303035.03125,388727.0625,707224.6875,707016.9375,707164.25,307901.90625,360936.25,356377.46875,0.07177734375,0.971923828125,-0.138671875,0.6103515028953552,-1.0986326932907104,-0.2441406100988388,6.6666669845581055,445.0,0.0,Rest
303035.03125,388727.0625,707224.6875,707016.9375,707164.25,307901.90625,360936.25,356377.46875,0.07177734375,0.971923828125,-0.138671875,0.6103515028953552,-1.0986326932907104,-0.2441406100988388,6.6666669845581055,446.0,0.0,Rest
303035.03125,388727.0625,707224.6875,707016.9375,707164.25,307901.90625,360936.25,356377.46875,0.07177734375,0.971923828125,-0.138671875,0.6103515028953552,-1.0986326932907104,-0.2441406100988388,6.6666669845581055,447.0,0.0,Rest
303035.03125,388727.0625,707224.6875,707016.9375,707164.25,307901.90625,360936.25,356377.46875,0.07177734375,0.971923828125,-0.138671875,0.6103515028953552,-1.0986326932907104,-0.2441406100988388,6.6666669845581055,448.0,0.0,Rest
303035.03125,388727.0625,707224.6875,707016.9375,707164.25,307901.90625,360936.25,356377.46875,0.07177734375,0.971923828125,-0.138671875,0.6103515028953552,-1.0986326932907104,-0.2441406100988388,6.6666669845581055,449.0,0.0,Rest
303035.03125,388727.0625,707224.6875,707016.9375,707164.25,307901.90625,360936.25,356377.46875,0.07177734375,0.971923828125,-0.138671875,0.6103515028953552,-1.0986326932907104,-0.2441406100988388,6.6666669845581055,450.0,0.0,Rest
303035.03125,388727.0625,707224.6875,707016.9375,707164.25,307901.90625,360936.25,356377.46875,0.07177734375,0.971923828125,-0.138671875,0.6103515028953552,-1.0986326932907104,-0.2441406100988388,6.6666669845581055,451.0,0.0,Rest
303035.03125,388727.0625,707224.6875,707016.9375,707164.25,307901.90625,360936.25,356377.46875,0.07177734375,0.971923828125,-0.138671875,0.6103515028953552,-1.0986326932907104,-0.2441406100988388,6.6666669845581055,452.0,0.0,Rest
303035.03125,388727.0625,707224.6875,707016.9375,707164.25,307901.90625,360936.25,356377.46875,0.07177734375,0.971923828125,-0.138671875,0.6103515028953552,-1.0986326932907104,-0.2441406100988388,6.6666669845581055,453.0,0.0,Rest
303035.03125,388727.0625,707224.6875,707016.9375,707164.25,307901.90625,360936.25,356377.46875,0.07177734375,0.971923828125,-0.138671875,0.6103515028953552,-1.0986326932907104,-0.2441406100988388,6.6666669845581055,454.0,0.0,Rest
303035.03125,388727.0625,707224.6875,707016.9375,707164.25,307901.90625,360936.25,356377.46875,0.07177734375,0.971923828125,-0.138671875,0.6103515028953552,-1.0986326932907104,-0.2441406100988388,6.6666669845581055,455.0,0.0,Rest
302557.59375,385119.3125,707178.3125,706970.625,707117.875,307395.96875,357864.40625,353784.0625,0.072998046875,0.968017578125,-0.140625,0.8239745497703552,0.1220703050494194,0.1525878757238388,6.6666669845581055,456.0,1.0,Rest
302112.28125,384706.4375,707170.6875,706963.1875,707110.4375,307322.71875,357611.21875,353376.96875,0.07470703125,0.9658203125,-0.143310546875,0.9765624403953552,0.1220703050494194,0.1831054538488388,6.6666669845581055,457.0,1.0,Rest
302155.0,384541.125,707172.1875,706964.25,707111.9375,307323.8125,357497.40625,353257.1875,0.073974609375,0.96533203125,-0.142578125,0.9155272841453552,-0.03051757626235485,0.1220703050494194,6.6666669845581055,458.0,1.0,Rest
302641.75,384751.875,707192.25,706984.1875,707131.6875,307406.59375,357590.09375,353528.71875,0.0732421875,0.966552734375,-0.14453125,1.0375975370407104,0.03051757626235485,-0.03051757626235485,6.6666669845581055,459.0,1.0,Rest
302817.4375,384830.09375,707194.8125,706986.6875,707133.875,307407.84375,357587.53125,353653.6875,0.07177734375,0.968994140625,-0.142822265625,0.9765624403953552,0.0915527269244194,-0.2136230319738388,6.6666669845581055,460.0,1.0,Rest
302509.6875,384583.96875,707182.5,706974.1875,707121.5,307334.71875,357411.375,353417.65625,0.071044921875,0.973388671875,-0.14501953125,0.9460448622703552,0.0915527269244194,-0.2746581733226776,6.6666669845581055,461.0,1.0,Rest
302068.5625,384162.65625,707171.5625,706962.8125,707110.375,307257.5625,357159.53125,353007.71875,0.06787109375,0.977294921875,-0.146240234375,0.9460448622703552,0.03051757626235485,-0.2746581733226776,6.6666669845581055,462.0,1.0,Rest
302098.59375,383986.28125,707173.0,706964.8125,707112.125,307245.65625,357043.125,352879.0,0.065673828125,0.98095703125,-0.1455078125,0.8544921278953552,0.03051757626235485,-0.3356933295726776,6.6666669845581055,463.0,1.0,Rest
302557.59375,384162.9375,707182.9375,706974.625,707121.875,307304.40625,357114.09375,353122.1875,0.0673828125,0.98388671875,-0.144287109375,0.5493163466453552,-0.0610351525247097,-0.4272460639476776,6.6666669845581055,464.0,1.0,Rest
302751.53125,384262.34375,707186.4375,706977.9375,707125.8125,307327.375,357132.53125,353263.34375,0.068359375,0.980224609375,-0.1435546875,0.2746581733226776,-0.0915527269244194,-0.4882812201976776,6.6666669845581055,465.0,1.0,Rest
302446.84375,384029.28125,707174.6875,706966.125,707114.375,307269.71875,356965.25,353034.03125,0.07080078125,0.977783203125,-0.142333984375,0.0610351525247097,0.0,-0.3967284858226776,6.6666669845581055,466.0,1.0,Rest
301994.96875,383611.21875,707164.4375,706956.125,707103.8125,307194.4375,356710.25,352621.6875,0.07177734375,0.972900390625,-0.144287109375,-0.2136230319738388,-0.0915527269244194,-0.4272460639476776,6.6666669845581055,467.0,1.0,Rest
302032.0625,383448.03125,707167.8125,706959.625,707107.0625,307194.4375,356598.84375,352500.875,0.0771484375,0.965087890625,-0.143798828125,-0.3051757514476776,-0.03051757626235485,-0.4272460639476776,6.6666669845581055,468.0,1.0,Rest
302032.0625,383448.03125,707167.8125,706959.625,707107.0625,307194.4375,356598.84375,352500.875,0.0771484375,0.965087890625,-0.143798828125,-0.3051757514476776,-0.03051757626235485,-0.4272460639476776,6.6666669845581055,469.0,0.0,Rest
302032.0625,383448.03125,707167.8125,706959.625,707107.0625,307194.4375,356598.84375,352500.875,0.0771484375,0.965087890625,-0.143798828125,-0.3051757514476776,-0.03051757626235485,-0.4272460639476776,6.6666669845581055,470.0,0.0,Rest
302032.0625,383448.03125,707167.8125,706959.625,707107.0625,307194.4375,356598.84375,352500.875,0.0771484375,0.965087890625,-0.143798828125,-0.3051757514476776,-0.03051757626235485,-0.4272460639476776,6.6666669845581055,471.0,0.0,Rest
302032.0625,383448.03125,707167.8125,706959.625,707107.0625,307194.4375,356598.84375,352500.875,0.0771484375,0.965087890625,-0.143798828125,-0.3051757514476776,-0.03051757626235485,-0.4272460639476776,6.6666669845581055,472.0,0.0,Rest
302032.0625,383448.03125,707167.8125,706959.625,707107.0625,307194.4375,356598.84375,352500.875,0.0771484375,0.965087890625,-0.143798828125,-0.3051757514476776,-0.03051757626235485,-0.4272460639476776,6.6666669845581055,473.0,0.0,Rest
302032.0625,383448.03125,707167.8125,706959.625,707107.0625,307194.4375,356598.84375,352500.875,0.0771484375,0.965087890625,-0.143798828125,-0.3051757514476776,-0.03051757626235485,-0.4272460639476776,6.6666669845581055,474.0,0.0,Rest
302032.0625,383448.03125,707167.8125,706959.625,707107.0625,307194.4375,356598.84375,352500.875,0.0771484375,0.965087890625,-0.143798828125,-0.3051757514476776,-0.03051757626235485,-0.4272460639476776,6.6666669845581055,475.0,0.0,Rest
302032.0625,383448.03125,707167.8125,706959.625,707107.0625,307194.4375,356598.84375,352500.875,0.0771484375,0.965087890625,-0.143798828125,-0.3051757514476776,-0.03051757626235485,-0.4272460639476776,6.6666669845581055,476.0,0.0,Rest
302032.0625,383448.03125,707167.8125,706959.625,707107.0625,307194.4375,356598.84375,352500.875,0.0771484375,0.965087890625,-0.143798828125,-0.3051757514476776,-0.03051757626235485,-0.4272460639476776,6.6666669845581055,477.0,0.0,Rest
302032.0625,383448.03125,707167.8125,706959.625,707107.0625,307194.4375,356598.84375,352500.875,0.0771484375,0.965087890625,-0.143798828125,-0.3051757514476776,-0.03051757626235485,-0.4272460639476776,6.6666669845581055,478.0,0.0,Rest
302032.0625,383448.03125,707167.8125,706959.625,707107.0625,307194.4375,356598.84375,352500.875,0.0771484375,0.965087890625,-0.143798828125,-0.3051757514476776,-0.03051757626235485,-0.4272460639476776,6.6666669845581055,479.0,0.0,Rest
302032.0625,383448.03125,707167.8125,706959.625,707107.0625,307194.4375,356598.84375,352500.875,0.0771484375,0.965087890625,-0.143798828125,-0.3051757514476776,-0.03051757626235485,-0.4272460639476776,6.6666669845581055,480.0,0.0,Rest
302032.0625,383448.03125,707167.8125,706959.625,707107.0625,307194.4375,356598.84375,352500.875,0.0771484375,0.965087890625,-0.143798828125,-0.3051757514476776,-0.03051757626235485,-0.4272460639476776,6.6666669845581055,481.0,0.0,Rest
302032.0625,383448.03125,707167.8125,706959.625,707107.0625,307194.4375,356598.84375,352500.875,0.0771484375,0.965087890625,-0.143798828125,-0.3051757514476776,-0.03051757626235485,-0.4272460639476776,6.6666669845581055,482.0,0.0,Rest
302032.0625,383448.03125,707167.8125,706959.625,707107.0625,307194.4375,356598.84375,352500.875,0.0771484375,0.965087890625,-0.143798828125,-0.3051757514476776,-0.03051757626235485,-0.4272460639476776,6.6666669845581055,483.0,0.0,Rest
302032.0625,383448.03125,707167.8125,706959.625,707107.0625,307194.4375,356598.84375,352500.875,0.0771484375,0.965087890625,-0.143798828125,-0.3051757514476776,-0.03051757626235485,-0.4272460639476776,6.6666669845581055,484.0,0.0,Rest
302032.0625,383448.03125,707167.8125,706959.625,707107.0625,307194.4375,356598.84375,352500.875,0.0771484375,0.965087890625,-0.143798828125,-0.3051757514476776,-0.03051757626235485,-0.4272460639476776,6.6666669845581055,485.0,0.0,Rest
302032.0625,383448.03125,707167.8125,706959.625,707107.0625,307194.4375,356598.84375,352500.875,0.0771484375,0.965087890625,-0.143798828125,-0.3051757514476776,-0.03051757626235485,-0.4272460639476776,6.6666669845581055,486.0,0.0,Rest
302032.0625,383448.03125,707167.8125,706959.625,707107.0625,307194.4375,356598.84375,352500.875,0.0771484375,0.965087890625,-0.143798828125,-0.3051757514476776,-0.03051757626235485,-0.4272460639476776,6.6666669845581055,487.0,0.0,Rest
302032.0625,383448.03125,707167.8125,706959.625,707107.0625,307194.4375,356598.84375,352500.875,0.0771484375,0.965087890625,-0.143798828125,-0.3051757514476776,-0.03051757626235485,-0.4272460639476776,6.6666669845581055,488.0,0.0,Rest
302032.0625,383448.03125,707167.8125,706959.625,707107.0625,307194.4375,356598.84375,352500.875,0.0771484375,0.965087890625,-0.143798828125,-0.3051757514476776,-0.03051757626235485,-0.4272460639476776,6.6666669845581055,489.0,0.0,Rest
302422.96875,381696.90625,707162.125,706953.375,707101.0625,306986.46875,354983.1875,351471.28125,0.072998046875,0.979736328125,-0.138916015625,0.0,0.3662109076976776,-0.6713866591453552,6.6666669845581055,490.0,1.0,Rest
302122.1875,381482.34375,707151.8125,706943.125,707091.375,306920.84375,354826.8125,351245.4375,0.0771484375,0.981201171875,-0.142333984375,-0.2136230319738388,0.3051757514476776,-0.5798339247703552,6.6666669845581055,491.0,1.0,Rest
301679.375,381095.5625,707143.0,706934.0625,707082.4375,306847.96875,354589.78125,350851.25,0.07666015625,0.9814453125,-0.142333984375,-0.4577636420726776,0.3356933295726776,-0.3356933295726776,6.6666669845581055,492.0,1.0,Rest
301715.03125,380953.84375,707144.875,706935.8125,707084.0,306849.6875,354491.53125,350745.46875,0.076171875,0.9814453125,-0.140869140625,-0.5798339247703552,0.4577636420726776,-0.2441406100988388,6.6666669845581055,493.0,1.0,Rest
302186.3125,381164.59375,707158.8125,706949.875,707098.125,306925.125,354581.21875,351013.5,0.075439453125,0.979248046875,-0.142578125,-0.7629393935203552,0.5798339247703552,-0.1525878757238388,6.6666669845581055,494.0,1.0,Rest
302374.25,381270.625,707165.0625,706956.3125,707104.25,306945.0,354599.53125,351160.6875,0.072998046875,0.977783203125,-0.140625,-0.8239745497703552,0.7019042372703552,-0.1525878757238388,6.6666669845581055,495.0,1.0,Rest
302064.15625,381039.59375,707154.5,706945.9375,707094.1875,306877.9375,354431.71875,350936.09375,0.07275390625,0.97265625,-0.137939453125,-1.0070799589157104,0.7629393935203552,0.1831054538488388,6.6666669845581055,496.0,1.0,Rest
301614.28125,380632.34375,707140.625,706932.0625,707080.75,306795.15625,354177.96875,350531.34375,0.0732421875,0.97021484375,-0.13623046875,-0.9765624403953552,0.7934569716453552,0.2746581733226776,6.6666669845581055,497.0,1.0,Rest
301659.34375,380492.78125,707141.4375,706932.8125,707081.8125,306800.875,354080.53125,350429.78125,0.0732421875,0.96875,-0.140380859375,-0.8850097060203552,0.7629393935203552,0.3356933295726776,6.6666669845581055,498.0,1.0,Rest
302123.53125,380700.75,707156.125,706947.4375,707096.375,306872.3125,354169.75,350695.59375,0.07421875,0.966796875,-0.13916015625,-0.8850097060203552,0.8239745497703552,0.3967284858226776,6.6666669845581055,499.0,1.0,Rest
302305.9375,380810.09375,707161.6875,706952.875,707101.5625,306892.5,354197.375,350845.15625,0.07275390625,0.962890625,-0.13720703125,-0.7934569716453552,0.8544921278953552,0.5187987685203552,6.6666669845581055,500.0,1.0,Rest
301998.625,380586.21875,707150.6875,706941.8125,707090.5625,306829.90625,354044.40625,350625.40625,0.071533203125,0.96240234375,-0.138916015625,-0.7019042372703552,0.7019042372703552,0.4272460639476776,6.6666669845581055,501.0,1.0,Rest
301549.46875,380180.3125,707139.75,706930.4375,707079.3125,306746.9375,353804.78125,350227.8125,0.0712890625,0.95947265625,-0.13916015625,-0.5493163466453552,0.7324218153953552,0.4882812201976776,6.6666669845581055,502.0,1.0,Rest
301582.1875,380021.78125,707144.125,706935.3125,707084.0625,306742.3125,353705.09375,350121.125,0.072265625,0.958251953125,-0.13720703125,-0.2746581733226776,0.6408690810203552,0.3967284858226776,6.6666669845581055,503.0,1.0,Rest
302049.6875,380224.1875,707156.125,706947.625,707096.0625,306808.46875,353792.625,350384.53125,0.070556640625,0.96044921875,-0.137939453125,-0.2136230319738388,0.6408690810203552,0.4272460639476776,6.6666669845581055,504.0,1.0,Rest
302238.34375,380333.1875,707159.6875,706950.9375,707099.5,306826.53125,353820.34375,350534.75,0.07177734375,0.9619140625,-0.13720703125,-0.0915527269244194,0.4882812201976776,0.3967284858226776,6.6666669845581055,505.0,1.0,Rest
301932.125,380103.0625,707148.6875,706939.5625,707088.25,306753.46875,353656.125,350310.6875,0.0693359375,0.9619140625,-0.134033203125,0.1831054538488388,0.4577636420726776,0.4272460639476776,6.6666669845581055,506.0,1.0,Rest
301493.5625,379704.21875,707141.5625,706932.3125,707080.75,306679.28125,353421.25,349921.125,0.069580078125,0.961669921875,-0.13671875,0.2441406100988388,0.3967284858226776,0.4577636420726776,6.6666669845581055,507.0,1.0,Rest
301540.96875,379566.625,707144.3125,706935.375,707084.125,306681.0625,353330.84375,349821.09375,0.070068359375,0.963134765625,-0.135986328125,0.3356933295726776,0.1831054538488388,0.3662109076976776,6.6666669845581055,508.0,1.0,Rest
301995.15625,379765.28125,707150.75,706942.0,707090.9375,306731.75,353407.21875,350065.875,0.069091796875,0.962890625,-0.139892578125,0.3051757514476776,0.1220703050494194,0.3967284858226776,6.6666669845581055,509.0,1.0,Rest
302173.15625,379868.8125,707151.375,706942.4375,707091.5,306738.09375,353423.21875,350200.09375,0.06689453125,0.96728515625,-0.13720703125,0.3967284858226776,0.0,0.4577636420726776,6.6666669845581055,510.0,1.0,Rest
301872.75,379653.0625,707140.8125,706931.6875,707080.3125,306677.46875,353269.78125,349979.4375,0.0673828125,0.968017578125,-0.13720703125,0.4882812201976776,-0.03051757626235485,0.3051757514476776,6.6666669845581055,511.0,1.0,Rest
301431.96875,379252.625,707129.5,706920.5625,707069.1875,306602.03125,353032.5,349584.96875,0.069580078125,0.9697265625,-0.1357421875,0.5187987685203552,-0.1525878757238388,0.2746581733226776,6.6666669845581055,512.0,1.0,Rest
301470.25,379103.84375,707135.625,706926.6875,707075.1875,306603.90625,352943.375,349487.6875,0.070068359375,0.969970703125,-0.13671875,0.4577636420726776,-0.2441406100988388,0.1525878757238388,6.6666669845581055,513.0,1.0,Rest
301935.25,379312.0625,707146.375,706937.0625,707085.6875,306663.1875,353028.65625,349742.84375,0.070556640625,0.970458984375,-0.137939453125,0.6103515028953552,-0.3051757514476776,0.2136230319738388,6.6666669845581055,514.0,1.0,Rest
302120.40625,379428.5625,707150.75,706941.5625,707090.3125,306684.375,353062.90625,349893.40625,0.069091796875,0.970703125,-0.13720703125,0.6103515028953552,-0.3356933295726776,0.0915527269244194,6.6666669845581055,515.0,1.0,Rest
301816.875,379208.375,707138.25,706928.875,707078.0625,306620.875,352910.71875,349673.375,0.071533203125,0.969970703125,-0.13818359375,0.5798339247703552,-0.4882812201976776,0.1220703050494194,6.6666669845581055,516.0,1.0,Rest
301357.59375,378785.09375,707119.1875,706909.5625,707058.5625,306523.25,352649.03125,349254.53125,0.07568359375,0.970703125,-0.138916015625,0.6103515028953552,-0.4882812201976776,0.1831054538488388,6.6666669845581055,517.0,1.0,Rest
301393.53125,378639.1875,707119.4375,706909.5625,707058.6875,306520.9375,352550.875,349149.28125,0.075927734375,0.969970703125,-0.138916015625,0.7934569716453552,-0.4272460639476776,0.3051757514476776,6.6666669845581055,518.0,1.0,Rest
301854.15625,378842.96875,707134.5,706925.1875,707073.875,306592.0,352646.875,349417.6875,0.07373046875,0.9677734375,-0.140380859375,0.7019042372703552,-0.4882812201976776,0.3662109076976776,6.6666669845581055,519.0,1.0,Rest
302031.4375,378940.59375,707136.25,706927.0625,707075.625,306601.03125,352664.15625,349553.0625,0.075439453125,0.9677734375,-0.143310546875,0.7629393935203552,-0.4577636420726776,0.3051757514476776,6.6666669845581055,520.0,1.0,Rest
301726.46875,378722.0,707123.9375,706914.75,707063.125,306534.625,352505.4375,349331.21875,0.076416015625,0.965576171875,-0.1455078125,0.7324218153953552,-0.3967284858226776,0.1831054538488388,6.6666669845581055,521.0,1.0,Rest
