EEG 1,EEG 2,EEG 3,EEG 4,EEG 5,EEG 6,EEG 7,EEG 8,Accelerometer X,Accelerometer Y,Accelerometer Z,Gyroscope X,Gyroscope Y,Gyroscope Z,Battery Level,Counter,Validation Indicator,State
-69907.40625,209679.578125,45255.7578125,264767.0625,-51745.09375,87398.453125,84010.015625,278419.96875,0.678466796875,-0.083984375,0.764404296875,0.0,0.0,0.0,60.0,1.0,1.0,Rest
25658.015625,9455.2353515625,2009.0643310546875,2259.4931640625,-14470.0732421875,3475.60693359375,-11357.4580078125,5736.6201171875,0.678955078125,-0.09033203125,0.77490234375,0.0,0.0,0.0,60.0,2.0,1.0,Rest
2466.649169921875,1048.296875,-62.40607452392578,-24405.333984375,-45261.5703125,-318.11004638671875,0.0,3276.14013671875,0.676513671875,-0.093994140625,0.77685546875,0.0,0.0,0.0,60.0,3.0,1.0,Rest
-2829.105224609375,122.57697296142578,-854.641357421875,-15406.7001953125,-17521.623046875,0.0,-51.49842071533203,2000.2130126953125,0.67236328125,-0.09521484375,0.779052734375,0.0,0.0,0.0,60.0,4.0,1.0,Rest
-3148.019775390625,-341.9817199707031,-2513.7666015625,-1078.78466796875,-1589.1197509765625,-0.08940698206424713,-492.27484130859375,1.8775466680526733,0.66845703125,-0.098876953125,0.781005859375,0.0,0.0,0.0,60.0,5.0,1.0,Rest
-2858.34130859375,-876.9931030273438,-3352.404296875,-5.900860786437988,-1275.1224365234375,-16.897918701171875,-5236.9248046875,-274.65826416015625,0.66650390625,-0.098388671875,0.78515625,-0.6713866591453552,-0.5187987685203552,-0.5798339247703552,60.0,6.0,1.0,Rest
-2252.251220703125,-555.5750122070312,-2686.232666015625,316.5007019042969,-1555.502685546875,-123.29222869873047,-23868.712890625,247.7467498779297,0.661865234375,-0.0966796875,0.785888671875,-2.563476324081421,-0.6408690810203552,-3.845214605331421,60.0,7.0,1.0,Rest
360.3101501464844,41.484840393066406,-2201.289306640625,973.3738403320312,-1429.349365234375,70.18447875976562,-12675.7646484375,1238.8231201171875,0.657470703125,-0.09033203125,0.794921875,1.0681151151657104,2.655029058456421,-2.044677495956421,60.0,8.0,1.0,Rest
3433.138671875,879.228271484375,-1729.1309814453125,410.46746826171875,-1327.514892578125,942.2601928710938,-2231.777099609375,13432.7734375,0.65185546875,-0.0849609375,0.798095703125,2.380370855331421,3.540038824081421,-1.7700194120407104,60.0,9.0,1.0,Rest
388.2945251464844,840.246826171875,-728.3092651367188,-1535.3861083984375,-1528.2335205078125,492.0066223144531,-1782.4176025390625,14568.0634765625,0.65283203125,-0.078125,0.80078125,2.960204839706421,3.662109136581421,-1.8615721464157104,60.0,10.0,1.0,Rest
-1037.5679931640625,-644.087890625,-974.4467163085938,-1587.5103759765625,-1264.48291015625,-939.6673583984375,-1487.37451171875,70.00566864013672,0.653076171875,-0.072265625,0.804931640625,3.082275152206421,3.601073980331421,-1.9836424589157104,60.0,11.0,1.0,Rest
-875.026123046875,-794.7386474609375,-882.5363159179688,-812.262451171875,-555.7537841796875,-580.6983642578125,-1168.72802734375,-380.9631652832031,0.651611328125,-0.06982421875,0.8115234375,3.021239995956421,3.448486089706421,-1.8920897245407104,60.0,12.0,1.0,Rest
-716.2393188476562,-604.7488403320312,-803.5005493164062,-512.3914184570312,-345.7367858886719,-297.904052734375,-1112.669921875,-62.674293518066406,0.64794921875,-0.065673828125,0.816162109375,2.655029058456421,3.204345464706421,-2.075195074081421,60.0,13.0,1.0,Rest
-687.1820678710938,-487.3574523925781,-905.3350830078125,-379.53265380859375,-261.2471923828125,-86.9035873413086,-1235.8726806640625,96.91716766357422,0.644775390625,-0.06298828125,0.820556640625,2.380370855331421,2.960204839706421,-2.166747808456421,60.0,14.0,1.0,Rest
-686.824462890625,-457.4955139160156,-1019.8654174804688,-320.6134338378906,-211.0898895263672,-2.5033955574035645,-1444.7274169921875,240.50477600097656,0.64208984375,-0.059814453125,0.825927734375,2.044677495956421,2.685546636581421,-2.166747808456421,60.0,15.0,1.0,Rest
-643.4620361328125,-408.50048828125,-844.09130859375,-206.97715759277344,-94.86080932617188,-7.957221508026123,-1265.0194091796875,225.66322326660156,0.638916015625,-0.056640625,0.828857421875,1.6784666776657104,2.166747808456421,-2.349853277206421,60.0,16.0,1.0,Rest
-700.2354736328125,-320.43463134765625,-589.01318359375,-75.19126892089844,-7.510186672210693,-4.112720966339111,-1028.0909423828125,218.95770263671875,0.639404296875,-0.05419921875,0.8291015625,1.3732908964157104,1.6479490995407104,-2.441406011581421,60.0,17.0,1.0,Rest
-513.8218994140625,-313.8185119628906,-457.31671142578125,-215.1132049560547,-38.176780700683594,-31.65007209777832,-697.5532836914062,16.629697799682617,0.638916015625,-0.052490234375,0.831787109375,0.9765624403953552,1.1901854276657104,-2.441406011581421,60.0,18.0,1.0,Rest
-222.44456481933594,-310.4210510253906,-247.7467498779297,-254.00523376464844,-82.1650161743164,-119.71595001220703,-292.5396423339844,-24.408105850219727,0.640625,-0.0498046875,0.8330078125,0.4577636420726776,0.4882812201976776,-2.593993902206421,60.0,19.0,1.0,Rest
-179.7974395751953,-272.0654602050781,-116.3184814453125,-239.3424835205078,-134.91513061523438,-215.1132049560547,-176.22116088867188,-105.6790542602539,0.642822265625,-0.045166015625,0.83349609375,0.03051757626235485,-0.1831054538488388,-2.685546636581421,60.0,20.0,1.0,Rest
-197.76824951171875,-254.00523376464844,-96.02310180664062,-231.02764892578125,-172.3766632080078,-227.6301727294922,-214.1297149658203,-141.71006774902344,0.645263671875,-0.044677734375,0.830810546875,-0.7324218153953552,-1.0070799589157104,-2.685546636581421,60.0,21.0,1.0,Rest
-190.258056640625,-245.95860290527344,-92.44682312011719,-223.24923706054688,-167.7274932861328,-211.26869201660156,-208.050048828125,-137.77615356445312,0.646484375,-0.042236328125,0.829345703125,-1.4648436307907104,-1.6784666776657104,-2.624511480331421,60.0,22.0,1.0,Rest
-185.07244873046875,-239.52130126953125,-88.87053680419922,-216.00726318359375,-165.0452880859375,-205.6360626220703,-202.4174041748047,-134.28929138183594,0.6474609375,-0.0390625,0.823486328125,-2.288818120956421,-2.471923589706421,-2.502441167831421,60.0,23.0,1.0,Rest
-180.5126953125,-233.1734161376953,-86.36714172363281,-209.748779296875,-161.46900939941406,-200.7186737060547,-197.3212127685547,-130.98123168945312,0.649169921875,-0.0361328125,0.822021484375,-3.082275152206421,-2.960204839706421,-2.441406011581421,60.0,24.0,1.0,Rest
-176.22116088867188,-227.71958923339844,-84.66841125488281,-204.3843536376953,-158.51858520507812,-195.9801025390625,-192.85086059570312,-128.7460479736328,0.64990234375,-0.036865234375,0.81201171875,-3.936767339706421,-3.570556402206421,-2.319335699081421,60.0,25.0,1.0,Rest
-172.466064453125,-222.26576232910156,-82.79086303710938,-199.55638122558594,-156.37281799316406,-191.956787109375,-187.9334716796875,-126.42147064208984,0.65185546875,-0.03955078125,0.80859375,-4.608153820037842,-4.089354991912842,-2.197265386581421,60.0,26.0,1.0,Rest
-168.88978576660156,-217.34837341308594,-81.00272369384766,-194.9966278076172,-153.86941528320312,-187.9334716796875,-183.91015625,-124.45452117919922,0.6552734375,-0.04052734375,0.8056640625,-5.279540538787842,-4.486083507537842,-2.105712652206421,60.0,27.0,1.0,Rest
-165.58172607421875,-212.87802124023438,-79.12517547607422,-190.9733123779297,-151.45542907714844,-184.5360107421875,-180.33387756347656,-123.11341094970703,0.659423828125,-0.042724609375,0.79736328125,-5.737304210662842,-4.577636241912842,-1.8310545682907104,60.0,28.0,1.0,Rest
-162.45248413085938,-208.58648681640625,-77.78407287597656,-187.2182159423828,-149.2202606201172,-180.95973205566406,-177.38345336914062,-121.77230834960938,0.661376953125,-0.0439453125,0.7880859375,-6.011962413787842,-4.638671398162842,-1.6479490995407104,60.0,29.0,1.0,Rest
-159.6808624267578,-204.83139038085938,-76.62178039550781,-183.8207550048828,-146.71685791015625,-178.0987091064453,-174.0753936767578,-119.98416900634766,0.6650390625,-0.0458984375,0.781982421875,-6.286620616912842,-4.577636241912842,-1.4343260526657104,60.0,30.0,1.0,Rest
-157.44569396972656,-201.07630920410156,-75.6383056640625,-180.5126953125,-145.5545654296875,-175.23768615722656,-171.12496948242188,-118.91128540039062,0.6669921875,-0.0478515625,0.775390625,-6.347655773162842,-4.577636241912842,-1.3122557401657104,60.0,31.0,1.0,Rest
-155.2105255126953,-197.6788330078125,-74.38661193847656,-177.38345336914062,-143.8558349609375,-172.19784545898438,-168.26394653320312,-117.8384017944336,0.67041015625,-0.050537109375,0.76904296875,-6.195067882537842,-4.486083507537842,-1.2512205839157104,60.0,32.0,1.0,Rest
-153.15415954589844,-194.2813720703125,-73.40312957763672,-174.8800506591797,-142.2465057373047,-169.96267700195312,-165.84994506835938,-116.85492706298828,0.672607421875,-0.051025390625,0.7666015625,-5.889892101287842,-4.364013195037842,-1.2207030057907104,60.0,33.0,1.0,Rest
-150.9189910888672,-191.2415313720703,-72.4196548461914,-172.28726196289062,-140.99481201171875,-167.54869079589844,-163.4359588623047,-115.87145233154297,0.675537109375,-0.049072265625,0.7587890625,-5.706786632537842,-4.150390148162842,-1.0070799589157104,60.0,34.0,1.0,Rest
-149.2202606201172,-188.38050842285156,-71.88321685791016,-169.7838592529297,-139.38548278808594,-165.22410583496094,-161.46900939941406,-114.79856872558594,0.6767578125,-0.046630859375,0.758056640625,-5.462646007537842,-3.845214605331421,-0.7019042372703552,60.0,35.0,1.0,Rest
-147.1638946533203,-185.60890197753906,-71.25736236572266,-167.81690979003906,-137.95497131347656,-163.4359588623047,-158.87620544433594,-114.26212310791016,0.681396484375,-0.04638671875,0.755615234375,-5.218505382537842,-3.509521245956421,-0.1831054538488388,60.0,36.0,1.0,Rest
-145.4651641845703,-183.1949005126953,-70.81033325195312,-165.58172607421875,-136.70327758789062,-161.29019165039062,-157.08807373046875,-113.8150863647461,0.6845703125,-0.0478515625,0.75390625,-5.065917491912842,-3.173827886581421,0.3051757514476776,60.0,37.0,1.0,Rest
-143.8558349609375,-180.78091430664062,-70.27388763427734,-163.52537536621094,-135.36216735839844,-159.3232421875,-155.2999267578125,-112.74220275878906,0.6845703125,-0.049072265625,0.750732421875,-4.730224132537842,-2.960204839706421,0.8850097060203552,60.0,38.0,1.0,Rest
-142.42532348632812,-178.45632934570312,-69.82685089111328,-161.6478271484375,-134.0210723876953,-157.80332946777344,-153.5117950439453,-112.02694702148438,0.68701171875,-0.053466796875,0.7490234375,-4.577636241912842,-2.563476324081421,1.6784666776657104,60.0,39.0,1.0,Rest
-140.90541076660156,-176.31056213378906,-69.55863189697266,-160.12789916992188,-132.85877990722656,-156.10458374023438,-151.9024658203125,-111.4011001586914,0.688232421875,-0.055908203125,0.749267578125,-4.241942882537842,-2.380370855331421,2.410888433456421,60.0,40.0,1.0,Rest
-139.65370178222656,-174.4330291748047,-68.66456604003906,-158.3397674560547,-131.785888671875,-154.5846710205078,-150.38253784179688,-111.04347229003906,0.6875,-0.059814453125,0.746826171875,-3.753661870956421,-2.319335699081421,3.326415777206421,60.0,41.0,1.0,Rest
-138.67022705078125,-172.3766632080078,-68.12812042236328,-156.81983947753906,-130.7130126953125,-153.15415954589844,-148.77322387695312,-110.596435546875,0.68798828125,-0.064208984375,0.7470703125,-3.173827886581421,-2.349853277206421,4.241942882537842,60.0,42.0,1.0,Rest
-137.23971557617188,-170.49911499023438,-68.12812042236328,-155.3893280029297,-129.9977569580078,-151.45542907714844,-147.52151489257812,-109.88117980957031,0.689697265625,-0.071533203125,0.7451171875,-2.502441167831421,-2.441406011581421,5.126952648162842,60.0,43.0,1.0,Rest
-135.63038635253906,-168.9792022705078,-67.85990142822266,-153.6011962890625,-129.1036834716797,-150.38253784179688,-146.09100341796875,-109.25533294677734,0.6904296875,-0.078857421875,0.743896484375,-1.6784666776657104,-2.746581792831421,5.981444835662842,60.0,44.0,1.0,Rest
-134.4680938720703,-167.7274932861328,-67.77049255371094,-152.52830505371094,-127.94139099121094,-149.2202606201172,-145.01812744140625,-108.98711395263672,0.692138671875,-0.084228515625,0.742431640625,-0.7629393935203552,-2.899169683456421,6.683349132537842,60.0,45.0,1.0,Rest
-133.3952178955078,-166.11817932128906,-67.4128646850586,-151.45542907714844,-126.8685073852539,-147.70033264160156,-143.67701721191406,-108.54007720947266,0.694091796875,-0.08935546875,0.74072265625,0.2136230319738388,-3.021239995956421,7.629394054412842,60.0,46.0,1.0,Rest
-132.59056091308594,-164.50885009765625,-67.23404693603516,-150.5613555908203,-126.33206939697266,-146.80625915527344,-142.5147247314453,-107.64600372314453,0.693603515625,-0.0947265625,0.7373046875,1.0986326932907104,-3.143310308456421,8.270262718200684,60.0,47.0,1.0,Rest
-131.785888671875,-162.98892211914062,-67.32345581054688,-149.39906311035156,-125.70621490478516,-145.91220092773438,-141.53125,-107.3777847290039,0.6953125,-0.099365234375,0.737548828125,1.9836424589157104,-3.265380620956421,8.819579124450684,60.0,48.0,1.0,Rest
-130.89181518554688,-161.55841064453125,-67.23404693603516,-148.2367706298828,-124.90155029296875,-144.8393096923828,-140.5477752685547,-106.93074798583984,0.69482421875,-0.104248046875,0.73583984375,2.655029058456421,-3.265380620956421,9.063719749450684,60.0,49.0,1.0,Rest
-129.9977569580078,-160.39613342285156,-66.96582794189453,-147.1638946533203,-124.18629455566406,-143.67701721191406,-139.65370178222656,-106.5731201171875,0.694091796875,-0.109130859375,0.735107421875,3.295898199081421,-3.204345464706421,9.552000999450684,60.0,50.0,1.0,Rest
-129.19308471679688,-159.4126434326172,-66.6976089477539,-146.09100341796875,-123.64985656738281,-142.78294372558594,-138.7596435546875,-106.30490112304688,0.693359375,-0.111083984375,0.727294921875,3.814697027206421,-3.082275152206421,9.796141624450684,60.0,51.0,1.0,Rest
-128.388427734375,-158.16094970703125,-66.42938995361328,-145.10752868652344,-123.02400970458984,-142.1571044921875,-137.77615356445312,-106.12609100341797,0.693115234375,-0.11669921875,0.7265625,4.302978038787842,-2.746581792831421,9.948729515075684,60.0,52.0,1.0,Rest
-127.5837631225586,-156.9986572265625,-66.42938995361328,-144.481689453125,-122.21934509277344,-141.1736297607422,-136.97149658203125,-105.76846313476562,0.694580078125,-0.123046875,0.7275390625,4.669188976287842,-2.258300542831421,9.948729515075684,60.0,53.0,1.0,Rest
-126.8685073852539,-155.92578125,-66.25057220458984,-143.58761596679688,-121.77230834960938,-140.4583740234375,-136.43505859375,-105.23201751708984,0.69384765625,-0.12890625,0.726806640625,4.974364757537842,-1.7700194120407104,9.796141624450684,60.0,54.0,1.0,Rest
-126.33206939697266,-155.03170776367188,-65.8929443359375,-143.05117797851562,-121.32527160644531,-139.56430053710938,-135.63038635253906,-104.78498077392578,0.691650390625,-0.132080078125,0.72998046875,5.279540538787842,-1.2512205839157104,9.338377952575684,60.0,55.0,1.0,Rest
-125.70621490478516,-154.22705078125,-65.98235321044922,-142.33592224121094,-120.61001586914062,-138.67022705078125,-134.736328125,-105.05320739746094,0.693603515625,-0.133544921875,0.72900390625,5.523681163787842,-0.6408690810203552,8.819579124450684,60.0,56.0,1.0,Rest
-125.08036804199219,-153.42237854003906,-65.8929443359375,-141.62066650390625,-120.1629867553711,-138.0443878173828,-134.0210723876953,-104.6955795288086,0.693115234375,-0.135986328125,0.7294921875,5.523681163787842,-0.1525878757238388,8.178709983825684,60.0,57.0,1.0,Rest
-124.45452117919922,-152.79653930664062,-65.98235321044922,-140.8159942626953,-119.5371322631836,-137.77615356445312,-133.30581665039062,-104.24854278564453,0.691162109375,-0.137451171875,0.7294921875,5.523681163787842,0.3967284858226776,7.385253429412842,60.0,58.0,1.0,Rest
-123.82866668701172,-151.9024658203125,-66.07176208496094,-140.10073852539062,-119.09010314941406,-136.97149658203125,-132.7693634033203,-104.0697250366211,0.695068359375,-0.135986328125,0.73388671875,5.432128429412842,0.9460448622703552,6.500243663787842,60.0,59.0,1.0,Rest
-123.47103881835938,-151.00839233398438,-65.7141342163086,-139.65370178222656,-118.64306640625,-136.34564208984375,-132.5011444091797,-103.9803237915039,0.6962890625,-0.134033203125,0.736572265625,5.126952648162842,1.3427733182907104,5.615233898162842,60.0,60.0,1.0,Rest
-122.8451919555664,-150.38253784179688,-65.44590759277344,-139.02786254882812,-118.37484741210938,-135.8986053466797,-131.785888671875,-103.71209716796875,0.698974609375,-0.1328125,0.739990234375,4.669188976287842,1.8920897245407104,4.730224132537842,60.0,61.0,1.0,Rest
-122.48756408691406,-149.6672821044922,-65.53531646728516,-138.4914093017578,-118.10662078857422,-135.0939483642578,-131.33885192871094,-103.1756591796875,0.697509765625,-0.130859375,0.746826171875,4.028319835662842,2.319335699081421,3.906249761581421,60.0,62.0,1.0,Rest
-121.8617172241211,-148.77322387695312,-65.35650634765625,-138.1337890625,-117.65959167480469,-134.64691162109375,-131.16004943847656,-103.08625030517578,0.69677734375,-0.12939453125,0.748046875,3.112792730331421,2.838134527206421,2.990722417831421,60.0,63.0,1.0,Rest
-121.50408935546875,-148.32618713378906,-65.62472534179688,-137.4185333251953,-117.21255493164062,-134.28929138183594,-130.62359619140625,-102.99684143066406,0.695068359375,-0.129150390625,0.7509765625,2.136230230331421,3.326415777206421,2.258300542831421,60.0,64.0,1.0,Rest
-120.96764373779297,-147.52151489257812,-65.62472534179688,-136.97149658203125,-116.58670806884766,-133.66343688964844,-129.7295379638672,-102.81803131103516,0.69140625,-0.128662109375,0.755126953125,1.1901854276657104,3.784179449081421,1.4343260526657104,60.0,65.0,1.0,Rest
-120.52061462402344,-147.2532958984375,-65.35650634765625,-136.5244598388672,-116.3184814453125,-132.94818115234375,-129.3719024658203,-102.46040344238281,0.6865234375,-0.13330078125,0.7568359375,0.4882812201976776,4.302978038787842,0.4272460639476776,60.0,66.0,1.0,Rest
-120.341796875,-146.35922241210938,-65.35650634765625,-135.98802185058594,-116.3184814453125,-132.67996215820312,-129.28250122070312,-102.28158569335938,0.683349609375,-0.133056640625,0.758544921875,-0.0915527269244194,4.577636241912842,-0.5798339247703552,60.0,67.0,1.0,Rest
-120.1629867553711,-145.82278442382812,-65.44590759277344,-135.7198028564453,-115.87145233154297,-132.4117431640625,-128.7460479736328,-102.10277557373047,0.68310546875,-0.1318359375,0.762939453125,-0.5493163466453552,4.852294445037842,-1.5258787870407104,60.0,68.0,1.0,Rest
-119.89476013183594,-145.4651641845703,-65.62472534179688,-135.0939483642578,-115.51382446289062,-132.05410766601562,-128.12020874023438,-102.10277557373047,0.681396484375,-0.12841796875,0.770751953125,-0.8850097060203552,5.035399913787842,-2.624511480331421,60.0,69.0,1.0,Rest
-119.35832214355469,-145.1969451904297,-65.44590759277344,-134.8257293701172,-115.33500671386719,-131.785888671875,-127.76258087158203,-102.01336669921875,0.6806640625,-0.126220703125,0.7734375,-1.1596678495407104,5.157470226287842,-3.570556402206421,60.0,70.0,1.0,Rest
-118.91128540039062,-144.8393096923828,-65.35650634765625,-134.736328125,-114.97737884521484,-131.24945068359375,-127.76258087158203,-101.83454895019531,0.679443359375,-0.118896484375,0.775634765625,-1.5258787870407104,5.187987804412842,-4.547118663787842,60.0,71.0,1.0,Rest
-118.73247528076172,-144.30287170410156,-65.17768859863281,-134.64691162109375,-114.6197509765625,-130.7130126953125,-127.31554412841797,-101.56632995605469,0.677734375,-0.112548828125,0.7822265625,-2.014159917831421,5.187987804412842,-5.401610851287842,60.0,72.0,1.0,Rest
-118.37484741210938,-143.7664337158203,-65.35650634765625,-134.0210723876953,-114.35153198242188,-130.62359619140625,-126.8685073852539,-101.20870208740234,0.67578125,-0.108642578125,0.787353515625,-2.502441167831421,5.340575695037842,-6.011962413787842,60.0,73.0,1.0,Rest
-118.10662078857422,-143.22998046875,-65.17768859863281,-133.66343688964844,-114.17271423339844,-130.35537719726562,-126.8685073852539,-101.29811096191406,0.677978515625,-0.102783203125,0.79443359375,-3.021239995956421,5.432128429412842,-6.347655773162842,60.0,74.0,1.0,Rest
-118.01721954345703,-142.96176147460938,-65.17768859863281,-133.30581665039062,-113.90449523925781,-130.1765594482422,-126.51087951660156,-101.38751983642578,0.676513671875,-0.09814453125,0.794189453125,-3.540038824081421,5.462646007537842,-6.652831554412842,60.0,75.0,1.0,Rest
-117.74899291992188,-142.78294372558594,-65.44590759277344,-132.85877990722656,-113.63627624511719,-129.55072021484375,-126.0638427734375,-101.20870208740234,0.6728515625,-0.097412109375,0.796630859375,-3.814697027206421,5.462646007537842,-6.866454601287842,60.0,76.0,1.0,Rest
-117.30196380615234,-142.42532348632812,-65.26709747314453,-132.67996215820312,-113.45745849609375,-129.55072021484375,-125.8850326538086,-101.11929321289062,0.667724609375,-0.0947265625,0.799072265625,-4.058837413787842,5.401610851287842,-7.080077648162842,60.0,77.0,1.0,Rest
-117.30196380615234,-142.2465057373047,-65.26709747314453,-132.5011444091797,-113.27864837646484,-129.3719024658203,-125.52740478515625,-101.02989196777344,0.666259765625,-0.095947265625,0.802490234375,-3.997802495956421,5.310058116912842,-7.141112804412842,60.0,78.0,1.0,Rest
-116.85492706298828,-141.79946899414062,-65.26709747314453,-132.05410766601562,-113.18923950195312,-128.92486572265625,-125.2591781616211,-100.94048309326172,0.66162109375,-0.09326171875,0.80615234375,-3.753661870956421,5.157470226287842,-7.232665538787842,60.0,79.0,1.0,Rest
-116.76551818847656,-141.62066650390625,-64.9988784790039,-131.785888671875,-113.18923950195312,-128.83546447753906,-124.90155029296875,-100.85107421875,0.658447265625,-0.088623046875,0.805419921875,-3.356933355331421,4.943847179412842,-7.293700695037842,60.0,80.0,1.0,Rest
-116.67610931396484,-141.4418487548828,-64.82006072998047,-131.60707092285156,-112.83161163330078,-128.4778289794922,-124.72274017333984,-100.6722640991211,0.658203125,-0.083740234375,0.810302734375,-2.838134527206421,4.608153820037842,-7.324218273162842,60.0,81.0,1.0,Rest
-116.58670806884766,-140.90541076660156,-64.9988784790039,-131.33885192871094,-112.56339263916016,-128.12020874023438,-124.3651123046875,-100.6722640991211,0.657470703125,-0.07958984375,0.815673828125,-2.166747808456421,4.486083507537842,-7.171630382537842,60.0,82.0,1.0,Rest
-116.1396713256836,-140.4583740234375,-65.17768859863281,-131.33885192871094,-112.38457489013672,-128.03079223632812,-124.45452117919922,-100.22522735595703,0.654541015625,-0.072265625,0.821044921875,-1.5258787870407104,4.211425304412842,-7.049560070037842,60.0,83.0,1.0,Rest
-115.96085357666016,-140.19015502929688,-65.17768859863281,-131.0706329345703,-112.295166015625,-127.76258087158203,-124.45452117919922,-100.13581848144531,0.654296875,-0.06396484375,0.821533203125,-1.1901854276657104,4.058837413787842,-6.835937023162842,60.0,84.0,1.0,Rest
-115.87145233154297,-140.01133728027344,-64.90946960449219,-130.7130126953125,-112.295166015625,-127.76258087158203,-123.91807556152344,-100.22522735595703,0.65283203125,-0.057861328125,0.823486328125,-0.8850097060203552,3.906249761581421,-6.561278820037842,60.0,85.0,1.0,Rest
-115.69263458251953,-139.65370178222656,-64.73065185546875,-130.53419494628906,-112.02694702148438,-127.5837631225586,-123.82866668701172,-100.0464096069336,0.64990234375,-0.05029296875,0.825439453125,-0.8239745497703552,3.631591558456421,-6.072997570037842,60.0,86.0,1.0,Rest
-115.51382446289062,-139.56430053710938,-64.73065185546875,-130.44479370117188,-111.84813690185547,-127.13672637939453,-123.73926544189453,-100.31463623046875,0.648193359375,-0.047607421875,0.830078125,-0.6408690810203552,3.387450933456421,-5.645751476287842,60.0,87.0,1.0,Rest
-115.51382446289062,-139.29608154296875,-64.73065185546875,-130.087158203125,-111.49050903320312,-126.689697265625,-123.64985656738281,-100.22522735595703,0.64599609375,-0.04443359375,0.83251953125,-0.5187987685203552,3.082275152206421,-5.218505382537842,60.0,88.0,1.0,Rest
-115.4244155883789,-139.29608154296875,-64.9988784790039,-129.81893920898438,-111.4011001586914,-126.95791625976562,-123.29222869873047,-100.31463623046875,0.64404296875,-0.040283203125,0.8359375,-0.5798339247703552,2.624511480331421,-4.730224132537842,60.0,89.0,1.0,Rest
-115.06678771972656,-139.1172637939453,-64.90946960449219,-129.9977569580078,-111.4011001586914,-126.8685073852539,-123.20281982421875,-100.13581848144531,0.6435546875,-0.03759765625,0.8388671875,-0.4272460639476776,2.105712652206421,-4.241942882537842,60.0,90.0,1.0,Rest
-115.06678771972656,-139.02786254882812,-64.73065185546875,-129.7295379638672,-111.31169128417969,-126.42147064208984,-123.11341094970703,-100.0464096069336,0.640869140625,-0.03369140625,0.842529296875,-0.3356933295726776,1.4648436307907104,-3.753661870956421,60.0,91.0,1.0,Rest
-114.97737884521484,-138.7596435546875,-64.82006072998047,-129.7295379638672,-111.04347229003906,-126.42147064208984,-123.11341094970703,-100.0464096069336,0.63671875,-0.030029296875,0.842041015625,-0.3356933295726776,0.7934569716453552,-3.082275152206421,60.0,92.0,1.0,Rest
-114.79856872558594,-138.4914093017578,-64.90946960449219,-129.4613037109375,-111.04347229003906,-126.24266052246094,-122.75578308105469,-99.68878173828125,0.63525390625,-0.027099609375,0.83984375,-0.5187987685203552,-0.0610351525247097,-2.685546636581421,60.0,93.0,1.0,Rest
-114.88796997070312,-138.31260681152344,-64.73065185546875,-129.28250122070312,-110.95406341552734,-126.24266052246094,-122.6663818359375,-99.68878173828125,0.63525390625,-0.0263671875,0.838134765625,-0.6408690810203552,-1.0070799589157104,-2.105712652206421,60.0,94.0,1.0,Rest
-114.6197509765625,-138.2231903076172,-64.55184173583984,-129.0142822265625,-110.77525329589844,-126.15325164794922,-122.57697296142578,-99.77819061279297,0.637939453125,-0.02685546875,0.837646484375,-0.7019042372703552,-1.7395018339157104,-1.4648436307907104,60.0,95.0,1.0,Rest
-114.44093322753906,-138.0443878173828,-64.73065185546875,-128.83546447753906,-110.77525329589844,-125.97444152832031,-122.30875396728516,-99.77819061279297,0.63818359375,-0.02734375,0.8359375,-0.8239745497703552,-2.441406011581421,-0.7324218153953552,60.0,96.0,1.0,Rest
-114.17271423339844,-137.86557006835938,-64.90946960449219,-129.0142822265625,-110.596435546875,-125.97444152832031,-122.21934509277344,-99.42056274414062,0.640380859375,-0.027587890625,0.8349609375,-0.9155272841453552,-2.777099370956421,-0.4577636420726776,60.0,97.0,1.0,Rest
-114.08330535888672,-137.77615356445312,-64.73065185546875,-128.92486572265625,-110.50702667236328,-125.97444152832031,-122.21934509277344,-99.68878173828125,0.63720703125,-0.027099609375,0.82958984375,-1.1596678495407104,-3.448486089706421,0.0610351525247097,60.0,98.0,1.0,Rest
-114.08330535888672,-137.59735107421875,-64.82006072998047,-128.92486572265625,-110.32821655273438,-125.79562377929688,-122.12993621826172,-99.59938049316406,0.63818359375,-0.030029296875,0.823486328125,-1.2817381620407104,-3.936767339706421,0.6408690810203552,60.0,99.0,1.0,Rest
-113.90449523925781,-137.23971557617188,-64.64125061035156,-128.56724548339844,-110.50702667236328,-125.52740478515625,-122.12993621826172,-99.42056274414062,0.638671875,-0.02978515625,0.81494140625,-1.4038084745407104,-4.425048351287842,1.0681151151657104,60.0,100.0,1.0,Rest
-113.90449523925781,-137.32913208007812,-64.55184173583984,-128.388427734375,-110.32821655273438,-125.43799591064453,-121.95112609863281,-99.3311538696289,0.640625,-0.0322265625,0.81298828125,-1.4343260526657104,-4.913329601287842,1.5563963651657104,60.0,101.0,1.0,Rest
-113.72567749023438,-137.4185333251953,-64.73065185546875,-128.388427734375,-110.05999755859375,-125.43799591064453,-121.68289947509766,-99.50997161865234,0.64208984375,-0.033935546875,0.809814453125,-1.4343260526657104,-5.371093273162842,2.014159917831421,60.0,102.0,1.0,Rest
-113.54686737060547,-137.1503143310547,-64.73065185546875,-128.2990264892578,-110.14939880371094,-125.34858703613281,-121.77230834960938,-99.3311538696289,0.64599609375,-0.035400390625,0.8017578125,-1.3427733182907104,-5.584716320037842,2.258300542831421,60.0,103.0,1.0,Rest
-113.63627624511719,-137.1503143310547,-64.73065185546875,-127.94139099121094,-110.14939880371094,-124.99095916748047,-121.77230834960938,-99.24175262451172,0.6484375,-0.03564453125,0.798095703125,-1.4953612089157104,-5.889892101287842,2.655029058456421,60.0,104.0,1.0,Rest
-113.72567749023438,-136.88209533691406,-64.82006072998047,-128.388427734375,-110.05999755859375,-124.90155029296875,-121.59349822998047,-99.3311538696289,0.6513671875,-0.038818359375,0.79052734375,-1.7089842557907104,-6.164550304412842,2.960204839706421,60.0,105.0,1.0,Rest
-113.72567749023438,-136.70327758789062,-64.46243286132812,-128.20960998535156,-109.88117980957031,-125.2591781616211,-121.59349822998047,-99.15234375,0.655029296875,-0.0400390625,0.785888671875,-1.9836424589157104,-6.500243663787842,3.204345464706421,60.0,106.0,1.0,Rest
-113.63627624511719,-136.70327758789062,-64.3730239868164,-127.85198211669922,-109.7023696899414,-125.08036804199219,-121.59349822998047,-98.88412475585938,0.659912109375,-0.04052734375,0.7822265625,-2.136230230331421,-6.774901866912842,3.540038824081421,60.0,107.0,1.0,Rest
-113.27864837646484,-136.5244598388672,-64.73065185546875,-127.5837631225586,-109.7023696899414,-125.08036804199219,-121.23587036132812,-98.88412475585938,0.662353515625,-0.04296875,0.778564453125,-2.441406011581421,-6.652831554412842,3.875732183456421,60.0,108.0,1.0,Rest
-113.36804962158203,-136.43505859375,-64.90946960449219,-127.76258087158203,-110.05999755859375,-125.08036804199219,-120.87824249267578,-99.15234375,0.665771484375,-0.045654296875,0.770751953125,-2.685546636581421,-6.713866710662842,4.211425304412842,60.0,109.0,1.0,Rest
-113.27864837646484,-136.5244598388672,-64.73065185546875,-127.67317199707031,-109.7023696899414,-124.72274017333984,-121.05705261230469,-99.24175262451172,0.6708984375,-0.048828125,0.765625,-3.021239995956421,-6.744384288787842,4.364013195037842,60.0,110.0,1.0,Rest
-112.9210205078125,-136.5244598388672,-64.64125061035156,-127.67317199707031,-109.61296081542969,-124.63333129882812,-121.05705261230469,-99.24175262451172,0.67431640625,-0.05517578125,0.760009765625,-3.265380620956421,-6.530761241912842,4.699706554412842,60.0,111.0,1.0,Rest
-113.01042175292969,-136.25624084472656,-64.55184173583984,-127.5837631225586,-109.7023696899414,-124.45452117919922,-120.96764373779297,-98.97352600097656,0.676513671875,-0.061767578125,0.75341796875,-3.356933355331421,-6.347655773162842,5.157470226287842,60.0,112.0,1.0,Rest
-113.18923950195312,-135.8092041015625,-64.82006072998047,-127.49435424804688,-109.7023696899414,-124.3651123046875,-120.87824249267578,-99.15234375,0.6796875,-0.06884765625,0.7470703125,-3.265380620956421,-6.134032726287842,5.493163585662842,60.0,113.0,1.0,Rest
-112.83161163330078,-135.8092041015625,-64.46243286132812,-127.31554412841797,-109.34474182128906,-124.18629455566406,-120.78883361816406,-99.06293487548828,0.681640625,-0.075439453125,0.73974609375,-3.082275152206421,-5.920409679412842,5.798339366912842,60.0,114.0,1.0,Rest
-112.9210205078125,-135.63038635253906,-64.55184173583984,-127.40495300292969,-109.16592407226562,-124.27570343017578,-120.87824249267578,-98.97352600097656,0.685302734375,-0.080322265625,0.7353515625,-2.563476324081421,-5.615233898162842,5.950927257537842,60.0,115.0,1.0,Rest
-112.83161163330078,-135.8092041015625,-64.82006072998047,-127.5837631225586,-109.25533294677734,-124.5439224243164,-120.87824249267578,-98.88412475585938,0.687744140625,-0.084716796875,0.7275390625,-2.014159917831421,-5.432128429412842,6.164550304412842,60.0,116.0,1.0,Rest
-112.65279388427734,-135.8986053466797,-64.73065185546875,-127.40495300292969,-109.43414306640625,-124.45452117919922,-120.78883361816406,-98.88412475585938,0.689208984375,-0.08984375,0.725341796875,-1.4648436307907104,-5.065917491912842,6.256103038787842,60.0,117.0,1.0,Rest
-112.83161163330078,-135.8092041015625,-64.64125061035156,-127.31554412841797,-109.43414306640625,-124.18629455566406,-120.61001586914062,-98.88412475585938,0.691162109375,-0.092529296875,0.722412109375,-0.9155272841453552,-4.669188976287842,6.561278820037842,60.0,118.0,1.0,Rest
-112.9210205078125,-135.8092041015625,-64.55184173583984,-127.31554412841797,-109.25533294677734,-124.09689331054688,-120.61001586914062,-98.79471588134766,0.692138671875,-0.0947265625,0.720458984375,-0.3356933295726776,-4.272460460662842,6.683349132537842,60.0,119.0,1.0,Rest
-112.9210205078125,-135.8986053466797,-64.64125061035156,-126.95791625976562,-109.16592407226562,-123.91807556152344,-120.69942474365234,-98.70530700683594,0.695556640625,-0.09716796875,0.718017578125,0.2441406100988388,-3.936767339706421,6.866454601287842,60.0,120.0,1.0,Rest
-112.65279388427734,-135.63038635253906,-64.64125061035156,-127.04732513427734,-109.25533294677734,-123.82866668701172,-120.78883361816406,-98.52649688720703,0.697021484375,-0.09912109375,0.718017578125,0.7324218153953552,-3.387450933456421,7.049560070037842,60.0,121.0,1.0,Rest
-112.56339263916016,-135.54098510742188,-64.55184173583984,-127.04732513427734,-108.897705078125,-123.91807556152344,-120.61001586914062,-98.61589813232422,0.69970703125,-0.104736328125,0.7216796875,1.2512205839157104,-2.777099370956421,7.232665538787842,60.0,122.0,1.0,Rest
-112.74220275878906,-135.54098510742188,-64.46243286132812,-126.8685073852539,-108.98711395263672,-123.91807556152344,-120.52061462402344,-98.70530700683594,0.699951171875,-0.109619140625,0.724609375,1.8005369901657104,-2.136230230331421,7.507323741912842,60.0,123.0,1.0,Rest
-112.74220275878906,-135.63038635253906,-64.46243286132812,-126.77909851074219,-109.25533294677734,-124.00748443603516,-120.341796875,-98.79471588134766,0.698486328125,-0.11083984375,0.72509765625,2.227782964706421,-1.5258787870407104,7.507323741912842,60.0,124.0,1.0,Rest
-112.65279388427734,-135.54098510742188,-64.55184173583984,-127.04732513427734,-108.98711395263672,-123.91807556152344,-120.1629867553711,-98.70530700683594,0.699462890625,-0.1103515625,0.7236328125,2.746581792831421,-1.2207030057907104,7.629394054412842,60.0,125.0,1.0,Rest
-112.56339263916016,-135.54098510742188,-64.73065185546875,-126.8685073852539,-108.80829620361328,-123.91807556152344,-120.341796875,-98.61589813232422,0.70263671875,-0.114501953125,0.72509765625,3.082275152206421,-0.8544921278953552,7.873534679412842,60.0,126.0,1.0,Rest
-112.38457489013672,-135.54098510742188,-64.73065185546875,-126.689697265625,-108.897705078125,-124.00748443603516,-120.61001586914062,-98.70530700683594,0.702880859375,-0.117919921875,0.728271484375,3.417968511581421,-0.5493163466453552,8.056639671325684,60.0,127.0,1.0,Rest
-112.20576477050781,-135.27276611328125,-64.46243286132812,-126.689697265625,-108.897705078125,-124.00748443603516,-120.43120574951172,-98.79471588134766,0.70166015625,-0.1201171875,0.732421875,3.692626714706421,-0.3356933295726776,8.148192405700684,60.0,128.0,1.0,Rest
-112.1163558959961,-135.0939483642578,-64.55184173583984,-126.77909851074219,-108.80829620361328,-123.91807556152344,-120.341796875,-98.70530700683594,0.7001953125,-0.123291015625,0.73583984375,3.936767339706421,-0.2136230319738388,8.239745140075684,60.0,129.0,1.0,Rest
-112.1163558959961,-135.0939483642578,-64.46243286132812,-126.77909851074219,-108.897705078125,-123.5604476928711,-120.25238800048828,-98.70530700683594,0.6982421875,-0.128173828125,0.739501953125,4.058837413787842,-0.0915527269244194,8.300780296325684,60.0,130.0,1.0,Rest
-112.295166015625,-135.27276611328125,-64.3730239868164,-126.8685073852539,-108.71888732910156,-123.47103881835938,-119.98416900634766,-98.70530700683594,0.695556640625,-0.130615234375,0.740966796875,4.272460460662842,0.1525878757238388,8.300780296325684,60.0,131.0,1.0,Rest
-112.38457489013672,-135.183349609375,-64.55184173583984,-126.60028839111328,-108.80829620361328,-123.64985656738281,-120.07357788085938,-98.61589813232422,0.69384765625,-0.13427734375,0.742919921875,4.486083507537842,0.4272460639476776,8.148192405700684,60.0,132.0,1.0,Rest
-112.38457489013672,-135.183349609375,-64.55184173583984,-126.51087951660156,-108.80829620361328,-123.64985656738281,-120.07357788085938,-98.61589813232422,0.693603515625,-0.13720703125,0.748291015625,4.608153820037842,0.6103515028953552,7.843017101287842,60.0,133.0,1.0,Rest
-112.1163558959961,-134.91513061523438,-64.3730239868164,-126.33206939697266,-108.80829620361328,-123.5604476928711,-119.98416900634766,-98.52649688720703,0.693359375,-0.13818359375,0.74951171875,4.852294445037842,0.7324218153953552,7.507323741912842,60.0,134.0,1.0,Rest
-112.02694702148438,-134.736328125,-64.55184173583984,-126.33206939697266,-108.80829620361328,-123.47103881835938,-120.07357788085938,-98.61589813232422,0.69482421875,-0.140380859375,0.754150390625,4.821776866912842,0.7934569716453552,7.263183116912842,60.0,135.0,1.0,Rest
-112.295166015625,-134.91513061523438,-64.64125061035156,-126.60028839111328,-108.71888732910156,-123.5604476928711,-119.98416900634766,-98.70530700683594,0.69580078125,-0.142578125,0.75830078125,4.669188976287842,0.9765624403953552,6.988524913787842,60.0,136.0,1.0,Rest
-112.295166015625,-135.0939483642578,-64.3730239868164,-126.689697265625,-108.71888732910156,-123.47103881835938,-120.07357788085938,-98.52649688720703,0.6943359375,-0.1474609375,0.7646484375,4.516601085662842,1.2207030057907104,6.774901866912842,60.0,137.0,1.0,Rest
-112.38457489013672,-134.736328125,-64.1942138671875,-126.42147064208984,-108.54007720947266,-123.47103881835938,-119.89476013183594,-98.70530700683594,0.68798828125,-0.152587890625,0.7646484375,4.333495616912842,1.4038084745407104,6.439208507537842,60.0,138.0,1.0,Rest
-112.20576477050781,-134.4680938720703,-64.3730239868164,-126.33206939697266,-108.62948608398438,-123.47103881835938,-119.89476013183594,-98.79471588134766,0.68408203125,-0.158447265625,0.76806640625,4.241942882537842,1.4648436307907104,5.859374523162842,60.0,139.0,1.0,Rest
-112.20576477050781,-134.64691162109375,-64.46243286132812,-126.51087951660156,-108.62948608398438,-123.29222869873047,-120.07357788085938,-98.70530700683594,0.6796875,-0.1630859375,0.769775390625,4.394530773162842,1.5869139432907104,5.157470226287842,60.0,140.0,1.0,Rest
-112.02694702148438,-134.736328125,-64.55184173583984,-126.24266052246094,-108.71888732910156,-123.29222869873047,-119.98416900634766,-98.70530700683594,0.67578125,-0.16650390625,0.772705078125,4.699706554412842,1.7089842557907104,4.394530773162842,60.0,141.0,1.0,Rest
-111.84813690185547,-134.91513061523438,-64.55184173583984,-126.42147064208984,-108.71888732910156,-123.38163757324219,-119.98416900634766,-98.52649688720703,0.67333984375,-0.16943359375,0.7744140625,5.096435070037842,1.6784666776657104,3.356933355331421,60.0,142.0,1.0,Rest
-112.20576477050781,-134.91513061523438,-64.3730239868164,-126.42147064208984,-108.62948608398438,-123.29222869873047,-119.80535888671875,-98.52649688720703,0.668701171875,-0.166015625,0.777587890625,5.493163585662842,1.7089842557907104,2.197265386581421,60.0,143.0,1.0,Rest
-112.20576477050781,-134.64691162109375,-64.1942138671875,-126.33206939697266,-108.54007720947266,-123.38163757324219,-119.98416900634766,-98.79471588134766,0.666015625,-0.162353515625,0.782470703125,5.737304210662842,1.7089842557907104,1.0375975370407104,60.0,144.0,1.0,Rest
-111.93753814697266,-134.736328125,-64.46243286132812,-126.42147064208984,-108.54007720947266,-123.5604476928711,-119.80535888671875,-98.70530700683594,0.664306640625,-0.159912109375,0.7861328125,5.676269054412842,1.6174315214157104,-0.1831054538488388,60.0,145.0,1.0,Rest
-111.93753814697266,-135.00454711914062,-64.73065185546875,-126.33206939697266,-108.36125946044922,-123.20281982421875,-119.62654113769531,-98.43708801269531,0.664306640625,-0.151123046875,0.789306640625,5.523681163787842,1.6479490995407104,-1.4648436307907104,60.0,146.0,1.0,Rest
-111.84813690185547,-134.55751037597656,-64.64125061035156,-126.33206939697266,-108.36125946044922,-123.29222869873047,-119.71595001220703,-98.43708801269531,0.664306640625,-0.144287109375,0.78857421875,5.065917491912842,1.5563963651657104,-2.624511480331421,60.0,147.0,1.0,Rest
-112.1163558959961,-134.37869262695312,-64.46243286132812,-126.24266052246094,-108.45066833496094,-123.47103881835938,-119.89476013183594,-98.43708801269531,0.66064453125,-0.134765625,0.784912109375,4.516601085662842,1.5258787870407104,-3.875732183456421,60.0,148.0,1.0,Rest
-112.1163558959961,-134.55751037597656,-64.3730239868164,-126.24266052246094,-108.27185821533203,-123.29222869873047,-119.98416900634766,-98.3476791381836,0.660400390625,-0.125244140625,0.788818359375,3.601073980331421,1.4038084745407104,-5.187987804412842,60.0,149.0,1.0,Rest
-111.93753814697266,-134.736328125,-64.55184173583984,-126.33206939697266,-108.54007720947266,-123.38163757324219,-119.71595001220703,-98.43708801269531,0.65966796875,-0.1171875,0.788818359375,2.471923589706421,1.4343260526657104,-6.286620616912842,60.0,150.0,1.0,Rest
-111.93753814697266,-134.736328125,-64.55184173583984,-126.15325164794922,-108.54007720947266,-123.11341094970703,-119.80535888671875,-98.43708801269531,0.656005859375,-0.107177734375,0.790283203125,1.1901854276657104,1.6174315214157104,-7.507323741912842,60.0,151.0,1.0,Rest
-111.84813690185547,-134.736328125,-64.64125061035156,-126.15325164794922,-108.36125946044922,-123.29222869873047,-119.71595001220703,-98.52649688720703,0.65380859375,-0.097900390625,0.791259765625,-0.3967284858226776,1.8310545682907104,-8.605956077575684,60.0,152.0,1.0,Rest
-111.84813690185547,-134.736328125,-64.46243286132812,-126.24266052246094,-108.36125946044922,-123.11341094970703,-119.62654113769531,-98.52649688720703,0.655029296875,-0.0927734375,0.79345703125,-1.8920897245407104,2.014159917831421,-9.582518577575684,60.0,153.0,1.0,Rest
-111.84813690185547,-134.91513061523438,-64.55184173583984,-126.24266052246094,-108.54007720947266,-123.20281982421875,-119.5371322631836,-98.43708801269531,0.654296875,-0.08740234375,0.7939453125,-3.387450933456421,2.197265386581421,-10.528563499450684,60.0,154.0,1.0,Rest
-111.93753814697266,-134.64691162109375,-64.55184173583984,-126.15325164794922,-108.54007720947266,-123.29222869873047,-119.80535888671875,-98.3476791381836,0.65380859375,-0.08203125,0.795166015625,-4.882812023162842,2.349853277206421,-11.322020530700684,60.0,155.0,1.0,Rest
-111.84813690185547,-134.64691162109375,-64.55184173583984,-126.24266052246094,-108.45066833496094,-123.47103881835938,-119.80535888671875,-98.3476791381836,0.650146484375,-0.078369140625,0.794677734375,-6.225585460662842,2.258300542831421,-12.054442405700684,60.0,156.0,1.0,Rest
-111.84813690185547,-134.4680938720703,-64.55184173583984,-126.0638427734375,-108.45066833496094,-123.29222869873047,-119.5371322631836,-98.70530700683594,0.65185546875,-0.07666015625,0.789794921875,-7.263183116912842,2.105712652206421,-12.573241233825684,60.0,157.0,1.0,Rest
-111.66931915283203,-134.55751037597656,-64.46243286132812,-126.15325164794922,-108.62948608398438,-123.29222869873047,-119.71595001220703,-98.52649688720703,0.653076171875,-0.072021484375,0.792724609375,-8.117674827575684,1.7700194120407104,-13.183592796325684,60.0,158.0,1.0,Rest
-111.93753814697266,-134.64691162109375,-64.55184173583984,-125.97444152832031,-108.62948608398438,-123.29222869873047,-119.4477310180664,-98.3476791381836,0.65673828125,-0.066650390625,0.790771484375,-8.972167015075684,1.5258787870407104,-13.610838890075684,60.0,159.0,1.0,Rest
-111.93753814697266,-134.37869262695312,-64.55184173583984,-126.15325164794922,-108.54007720947266,-123.20281982421875,-119.71595001220703,-98.43708801269531,0.6572265625,-0.064697265625,0.7861328125,-9.490965843200684,1.0986326932907104,-13.916014671325684,60.0,160.0,1.0,Rest
-111.84813690185547,-134.37869262695312,-64.55184173583984,-126.0638427734375,-108.36125946044922,-123.29222869873047,-119.71595001220703,-98.70530700683594,0.65869140625,-0.06005859375,0.78173828125,-9.979247093200684,0.7934569716453552,-13.946532249450684,60.0,161.0,1.0,Rest
-111.84813690185547,-134.64691162109375,-64.46243286132812,-125.97444152832031,-108.36125946044922,-123.11341094970703,-119.71595001220703,-98.43708801269531,0.657958984375,-0.05615234375,0.77783203125,-10.345458030700684,0.6103515028953552,-13.885497093200684,60.0,162.0,1.0,Rest
-111.93753814697266,-134.64691162109375,-64.28362274169922,-125.97444152832031,-108.27185821533203,-122.8451919555664,-119.62654113769531,-98.25827026367188,0.659423828125,-0.0517578125,0.771240234375,-10.498045921325684,0.4577636420726776,-13.763426780700684,60.0,163.0,1.0,Rest
-111.84813690185547,-134.4680938720703,-64.55184173583984,-125.97444152832031,-108.45066833496094,-123.02400970458984,-119.5371322631836,-98.43708801269531,0.663330078125,-0.046142578125,0.764892578125,-10.681151390075684,0.4882812201976776,-13.549803733825684,60.0,164.0,1.0,Rest
-112.02694702148438,-134.4680938720703,-64.64125061035156,-125.97444152832031,-108.36125946044922,-123.11341094970703,-119.5371322631836,-98.3476791381836,0.666748046875,-0.0419921875,0.764404296875,-10.803221702575684,0.6713866591453552,-13.061522483825684,60.0,165.0,1.0,Rest
-112.1163558959961,-134.4680938720703,-64.55184173583984,-125.97444152832031,-108.36125946044922,-123.20281982421875,-119.5371322631836,-98.43708801269531,0.67041015625,-0.039794921875,0.762451171875,-10.864256858825684,0.9765624403953552,-12.390135765075684,60.0,166.0,1.0,Rest
-111.66931915283203,-134.37869262695312,-64.46243286132812,-126.15325164794922,-108.27185821533203,-123.29222869873047,-119.5371322631836,-98.52649688720703,0.669677734375,-0.039794921875,0.7607421875,-10.711668968200684,1.5869139432907104,-11.657713890075684,60.0,167.0,1.0,Rest
-111.57991027832031,-134.1998748779297,-64.64125061035156,-126.0638427734375,-108.36125946044922,-123.29222869873047,-119.62654113769531,-98.16886901855469,0.669189453125,-0.043212890625,0.758056640625,-10.375975608825684,2.136230230331421,-10.833739280700684,60.0,168.0,1.0,Rest
-111.75872802734375,-134.1998748779297,-64.46243286132812,-126.0638427734375,-108.27185821533203,-123.02400970458984,-119.5371322631836,-98.43708801269531,0.672119140625,-0.044921875,0.757568359375,-9.887694358825684,2.593993902206421,-9.857176780700684,60.0,169.0,1.0,Rest
-111.66931915283203,-134.37869262695312,-64.46243286132812,-125.70621490478516,-108.27185821533203,-123.02400970458984,-119.71595001220703,-98.3476791381836,0.6708984375,-0.04833984375,0.756103515625,-8.972167015075684,2.960204839706421,-8.850096702575684,60.0,170.0,1.0,Rest
-111.66931915283203,-134.28929138183594,-64.55184173583984,-125.97444152832031,-108.27185821533203,-123.29222869873047,-119.62654113769531,-98.3476791381836,0.668701171875,-0.051513671875,0.755126953125,-7.690429210662842,3.295898199081421,-7.781981945037842,60.0,171.0,1.0,Rest
-111.84813690185547,-134.28929138183594,-64.55184173583984,-126.0638427734375,-108.36125946044922,-123.02400970458984,-119.4477310180664,-98.25827026367188,0.665771484375,-0.053466796875,0.756591796875,-6.103515148162842,3.540038824081421,-6.958007335662842,60.0,172.0,1.0,Rest
-111.84813690185547,-134.37869262695312,-64.46243286132812,-125.97444152832031,-108.27185821533203,-123.11341094970703,-119.4477310180664,-98.16886901855469,0.6650390625,-0.054931640625,0.7587890625,-4.486083507537842,3.570556402206421,-5.981444835662842,60.0,173.0,1.0,Rest
-111.93753814697266,-134.64691162109375,-64.64125061035156,-125.97444152832031,-108.0930404663086,-123.11341094970703,-119.5371322631836,-98.07946014404297,0.663330078125,-0.05419921875,0.76025390625,-2.777099370956421,3.570556402206421,-4.943847179412842,60.0,174.0,1.0,Rest
-111.75872802734375,-134.37869262695312,-64.46243286132812,-126.15325164794922,-108.36125946044922,-123.11341094970703,-119.5371322631836,-98.25827026367188,0.666259765625,-0.052490234375,0.765869140625,-1.0986326932907104,3.479003667831421,-4.058837413787842,60.0,175.0,1.0,Rest
-111.66931915283203,-134.1998748779297,-64.28362274169922,-126.15325164794922,-108.36125946044922,-122.8451919555664,-119.26891326904297,-98.3476791381836,0.666748046875,-0.049560546875,0.771728515625,0.5187987685203552,3.448486089706421,-2.990722417831421,60.0,176.0,1.0,Rest
-111.84813690185547,-134.37869262695312,-64.46243286132812,-125.97444152832031,-108.0930404663086,-123.02400970458984,-119.4477310180664,-98.3476791381836,0.667724609375,-0.04638671875,0.778076171875,1.9226073026657104,3.417968511581421,-1.8005369901657104,60.0,177.0,1.0,Rest
-111.66931915283203,-134.1998748779297,-64.55184173583984,-125.79562377929688,-108.18244934082031,-123.02400970458984,-119.5371322631836,-98.16886901855469,0.669921875,-0.046875,0.78271484375,2.929687261581421,3.540038824081421,-0.5798339247703552,60.0,178.0,1.0,Rest
-111.84813690185547,-134.1104736328125,-64.1942138671875,-125.8850326538086,-108.27185821533203,-123.02400970458984,-119.62654113769531,-98.07946014404297,0.669921875,-0.047607421875,0.787109375,3.967284917831421,3.417968511581421,0.7934569716453552,60.0,179.0,1.0,Rest
-111.93753814697266,-134.0210723876953,-64.28362274169922,-125.97444152832031,-108.27185821533203,-123.02400970458984,-119.4477310180664,-98.16886901855469,0.6669921875,-0.04736328125,0.791015625,4.913329601287842,3.387450933456421,2.044677495956421,60.0,180.0,1.0,Rest
-111.57991027832031,-134.28929138183594,-64.55184173583984,-125.8850326538086,-108.0930404663086,-123.02400970458984,-119.35832214355469,-98.25827026367188,0.661376953125,-0.050048828125,0.796630859375,5.798339366912842,3.295898199081421,3.204345464706421,60.0,181.0,1.0,Rest
-111.66931915283203,-134.1998748779297,-64.46243286132812,-125.97444152832031,-107.91423034667969,-123.11341094970703,-119.4477310180664,-98.3476791381836,0.6591796875,-0.05126953125,0.799072265625,6.500243663787842,3.173827886581421,4.089354991912842,60.0,182.0,1.0,Rest
-111.84813690185547,-134.1998748779297,-64.1942138671875,-126.0638427734375,-108.18244934082031,-123.02400970458984,-119.4477310180664,-98.25827026367188,0.65869140625,-0.052490234375,0.802734375,7.202147960662842,2.899169683456421,4.791259288787842,60.0,183.0,1.0,Rest
-111.66931915283203,-134.28929138183594,-64.01539611816406,-125.70621490478516,-107.82482147216797,-123.02400970458984,-119.4477310180664,-98.52649688720703,0.655029296875,-0.056884765625,0.809814453125,7.659911632537842,2.563476324081421,5.645751476287842,60.0,184.0,1.0,Rest
-111.49050903320312,-134.28929138183594,-63.92599105834961,-125.79562377929688,-107.91423034667969,-122.8451919555664,-119.4477310180664,-98.25827026367188,0.654052734375,-0.058837890625,0.810791015625,7.965087413787842,2.075195074081421,6.072997570037842,60.0,185.0,1.0,Rest
-111.57991027832031,-134.28929138183594,-63.836585998535156,-125.97444152832031,-107.91423034667969,-122.8451919555664,-119.5371322631836,-98.07946014404297,0.6533203125,-0.0625,0.8125,8.392333030700684,1.6784666776657104,6.500243663787842,60.0,186.0,1.0,Rest
-111.75872802734375,-134.1104736328125,-63.657772064208984,-125.97444152832031,-107.82482147216797,-122.93460083007812,-119.4477310180664,-98.25827026367188,0.651123046875,-0.06201171875,0.812744140625,8.453368186950684,1.1901854276657104,6.713866710662842,60.0,187.0,1.0,Rest
-111.84813690185547,-134.1104736328125,-63.47895812988281,-125.79562377929688,-108.00363159179688,-123.02400970458984,-119.5371322631836,-98.3476791381836,0.64794921875,-0.0625,0.8134765625,8.392333030700684,0.6713866591453552,6.774901866912842,60.0,188.0,1.0,Rest
-111.84813690185547,-134.1998748779297,-63.12133026123047,-125.79562377929688,-107.73541259765625,-123.11341094970703,-119.5371322631836,-98.25827026367188,0.650146484375,-0.064208984375,0.814453125,8.148192405700684,0.3051757514476776,6.805419445037842,60.0,189.0,1.0,Rest
-111.66931915283203,-134.37869262695312,-62.763702392578125,-125.97444152832031,-107.82482147216797,-123.02400970458984,-119.4477310180664,-98.25827026367188,0.646728515625,-0.063720703125,0.814697265625,7.904052257537842,0.0,6.683349132537842,60.0,190.0,1.0,Rest
-111.66931915283203,-134.37869262695312,-62.85310745239258,-125.97444152832031,-107.91423034667969,-122.8451919555664,-119.35832214355469,-98.3476791381836,0.647216796875,-0.06494140625,0.811279296875,7.324218273162842,-0.1831054538488388,6.530761241912842,60.0,191.0,1.0,Rest
-111.84813690185547,-134.37869262695312,-62.9425163269043,-125.8850326538086,-107.55660247802734,-123.02400970458984,-119.26891326904297,-98.16886901855469,0.646240234375,-0.065673828125,0.811767578125,6.500243663787842,-0.3051757514476776,6.164550304412842,60.0,192.0,1.0,Rest
-111.84813690185547,-134.64691162109375,-62.495479583740234,-125.8850326538086,-107.64600372314453,-123.11341094970703,-119.35832214355469,-98.07946014404297,0.64697265625,-0.068359375,0.810791015625,5.615233898162842,-0.4577636420726776,5.828856945037842,60.0,193.0,1.0,Rest
-111.66931915283203,-134.736328125,-62.22726058959961,-125.97444152832031,-107.55660247802734,-122.93460083007812,-119.26891326904297,-97.99005126953125,0.6513671875,-0.0693359375,0.80810546875,4.760741710662842,-0.5187987685203552,5.401610851287842,60.0,194.0,1.0,Rest
-111.4011001586914,-134.4680938720703,-62.31666564941406,-125.79562377929688,-107.46719360351562,-122.8451919555664,-119.09010314941406,-97.54301452636719,0.65087890625,-0.073486328125,0.80908203125,3.631591558456421,-0.5493163466453552,5.004882335662842,60.0,195.0,1.0,Rest
-111.49050903320312,-134.8257293701172,-62.22726058959961,-125.8850326538086,-107.46719360351562,-122.8451919555664,-119.35832214355469,-97.45361328125,0.65185546875,-0.07568359375,0.808837890625,2.593993902206421,-0.6103515028953552,4.455565929412842,60.0,196.0,1.0,Rest
-111.49050903320312,-134.8257293701172,-61.869632720947266,-125.97444152832031,-107.3777847290039,-122.75578308105469,-119.35832214355469,-97.45361328125,0.653076171875,-0.078125,0.806640625,1.8005369901657104,-0.8239745497703552,3.967284917831421,60.0,197.0,1.0,Rest
-111.66931915283203,-134.736328125,-61.601409912109375,-125.79562377929688,-107.46719360351562,-123.02400970458984,-119.17950439453125,-97.09598541259766,0.654296875,-0.082763671875,0.803466796875,0.7629393935203552,-1.0986326932907104,3.509521245956421,60.0,198.0,1.0,Rest
-111.66931915283203,-134.8257293701172,-61.15437698364258,-125.79562377929688,-107.3777847290039,-123.02400970458984,-119.4477310180664,-97.00657653808594,0.654296875,-0.0869140625,0.796875,-0.1831054538488388,-1.4343260526657104,3.082275152206421,60.0,199.0,1.0,Rest
-111.4011001586914,-134.91513061523438,-60.975563049316406,-125.97444152832031,-107.198974609375,-122.8451919555664,-119.35832214355469,-96.8277587890625,0.65576171875,-0.089599609375,0.794677734375,-1.0986326932907104,-1.5563963651657104,2.532958745956421,60.0,200.0,1.0,Rest
-111.4011001586914,-134.91513061523438,-60.88615417480469,-125.8850326538086,-107.198974609375,-122.48756408691406,-119.26891326904297,-96.6489486694336,0.658935546875,-0.093994140625,0.790771484375,-1.8005369901657104,-1.7089842557907104,1.9531248807907104,60.0,201.0,1.0,Rest
-111.57991027832031,-135.00454711914062,-60.61793518066406,-125.79562377929688,-107.28837585449219,-122.8451919555664,-119.26891326904297,-96.38072967529297,0.65966796875,-0.095947265625,0.785400390625,-2.441406011581421,-1.8005369901657104,1.2817381620407104,60.0,202.0,1.0,Rest
-111.66931915283203,-134.91513061523438,-60.528526306152344,-125.8850326538086,-107.02015686035156,-122.93460083007812,-119.4477310180664,-96.02310180664062,0.663330078125,-0.09716796875,0.783935546875,-2.990722417831421,-1.7700194120407104,0.7934569716453552,60.0,203.0,1.0,Rest
-111.66931915283203,-135.183349609375,-60.43912124633789,-125.97444152832031,-107.02015686035156,-123.11341094970703,-119.26891326904297,-95.9336929321289,0.66552734375,-0.10302734375,0.7802734375,-3.295898199081421,-1.6479490995407104,0.3051757514476776,60.0,204.0,1.0,Rest
-111.57991027832031,-135.0939483642578,-60.1708984375,-125.8850326538086,-106.84134674072266,-123.11341094970703,-119.00069427490234,-95.75487518310547,0.66748046875,-0.102783203125,0.778564453125,-3.448486089706421,-1.4038084745407104,-0.1831054538488388,60.0,205.0,1.0,Rest
-111.66931915283203,-135.183349609375,-59.99208450317383,-125.70621490478516,-106.3943099975586,-123.11341094970703,-119.00069427490234,-95.39724731445312,0.6669921875,-0.104248046875,0.771484375,-3.723144292831421,-1.0070799589157104,-0.5798339247703552,60.0,206.0,1.0,Rest
-111.57991027832031,-135.183349609375,-59.813270568847656,-125.70621490478516,-106.48371887207031,-122.8451919555664,-119.17950439453125,-95.30784606933594,0.66748046875,-0.10693359375,0.773681640625,-3.570556402206421,-0.6408690810203552,-1.0070799589157104,60.0,207.0,1.0,Rest
-111.49050903320312,-135.183349609375,-59.54505157470703,-125.79562377929688,-106.48371887207031,-122.93460083007812,-119.17950439453125,-95.30784606933594,0.669189453125,-0.10888671875,0.77294921875,-3.295898199081421,-0.2746581733226776,-1.3427733182907104,60.0,208.0,1.0,Rest
-111.57991027832031,-135.183349609375,-59.09801483154297,-125.79562377929688,-106.48371887207031,-123.02400970458984,-118.8218765258789,-94.9502182006836,0.669921875,-0.10888671875,0.7705078125,-3.082275152206421,0.0610351525247097,-1.7395018339157104,60.0,209.0,1.0,Rest
-111.66931915283203,-135.183349609375,-58.9192008972168,-125.79562377929688,-106.30490112304688,-122.8451919555664,-119.00069427490234,-94.68199157714844,0.672607421875,-0.107177734375,0.767578125,-2.716064214706421,0.1831054538488388,-1.9836424589157104,60.0,210.0,1.0,Rest
-111.66931915283203,-135.27276611328125,-58.740386962890625,-125.97444152832031,-106.03668212890625,-122.8451919555664,-119.00069427490234,-94.2349624633789,0.675048828125,-0.104736328125,0.7685546875,-2.227782964706421,0.2746581733226776,-2.075195074081421,60.0,211.0,1.0,Rest
-111.4011001586914,-135.54098510742188,-58.29335403442383,-125.97444152832031,-105.94727325439453,-122.8451919555664,-119.00069427490234,-94.05614471435547,0.675537109375,-0.102783203125,0.76806640625,-1.8310545682907104,0.2746581733226776,-2.197265386581421,60.0,212.0,1.0,Rest
-111.49050903320312,-135.54098510742188,-58.02513122558594,-125.79562377929688,-106.03668212890625,-122.93460083007812,-119.00069427490234,-94.05614471435547,0.67626953125,-0.103271484375,0.767578125,-1.4038084745407104,0.3356933295726776,-2.197265386581421,60.0,213.0,1.0,Rest
-111.4011001586914,-135.7198028564453,-57.75691223144531,-125.79562377929688,-105.6790542602539,-122.6663818359375,-118.91128540039062,-93.6091079711914,0.676025390625,-0.10009765625,0.770263671875,-1.1596678495407104,0.5187987685203552,-1.9836424589157104,60.0,214.0,1.0,Rest
-111.4011001586914,-135.7198028564453,-57.57809829711914,-125.79562377929688,-105.58964538574219,-122.6663818359375,-118.8218765258789,-93.51970672607422,0.6767578125,-0.10009765625,0.7734375,-0.8239745497703552,0.6408690810203552,-1.7700194120407104,60.0,215.0,1.0,Rest
-111.49050903320312,-135.63038635253906,-57.39928436279297,-125.79562377929688,-105.41083526611328,-122.8451919555664,-118.64306640625,-93.07266998291016,0.673828125,-0.099609375,0.772705078125,-0.4882812201976776,0.7019042372703552,-1.5258787870407104,60.0,216.0,1.0,Rest
-111.75872802734375,-135.8092041015625,-57.30987548828125,-126.0638427734375,-105.23201751708984,-122.75578308105469,-118.64306640625,-93.07266998291016,0.671630859375,-0.097900390625,0.772216796875,-0.03051757626235485,0.7629393935203552,-1.3122557401657104,60.0,217.0,1.0,Rest
-111.84813690185547,-136.16683959960938,-57.04165267944336,-125.8850326538086,-105.23201751708984,-122.57697296142578,-118.55365753173828,-92.89385223388672,0.66845703125,-0.097900390625,0.767822265625,0.4272460639476776,0.8239745497703552,-1.3122557401657104,60.0,218.0,1.0,Rest
-111.49050903320312,-136.07742309570312,-56.684024810791016,-125.70621490478516,-104.8743896484375,-122.93460083007812,-118.64306640625,-92.6256332397461,0.670654296875,-0.09326171875,0.77099609375,0.8544921278953552,0.7934569716453552,-1.2512205839157104,60.0,219.0,1.0,Rest
-111.66931915283203,-136.07742309570312,-54.00181579589844,-125.52740478515625,-104.60617065429688,-122.8451919555664,-113.90449523925781,-71.70439910888672,0.671875,-0.089111328125,0.773193359375,1.2207030057907104,0.6408690810203552,-1.0681151151657104,60.0,220.0,1.0,Rest
-111.66931915283203,-135.8986053466797,-25.8386173248291,-112.295166015625,-103.53328704833984,-111.04347229003906,-62.495479583740234,22.441152572631836,0.671875,-0.085205078125,0.772216796875,1.3427733182907104,0.4882812201976776,-0.8544921278953552,60.0,221.0,1.0,Rest
-111.04347229003906,-136.16683959960938,9.745361328125,-70.36329650878906,-91.28453063964844,-68.84337615966797,8.672477722167969,108.27185821533203,0.670166015625,-0.08251953125,0.771484375,1.2207030057907104,0.4577636420726776,-0.7324218153953552,60.0,222.0,1.0,Rest
-80.73450469970703,-120.43120574951172,69.64804077148438,-6.616116523742676,-44.43526840209961,-7.3313727378845215,97.18538665771484,197.76824951171875,0.671630859375,-0.08154296875,0.777099609375,1.0070799589157104,0.4272460639476776,-0.4272460639476776,60.0,223.0,1.0,Rest
47.922142028808594,-2.3245816230773926,267.4162902832031,184.5360107421875,131.51766967773438,181.2279510498047,308.36468505859375,407.8746643066406,0.671875,-0.07861328125,0.7763671875,0.7629393935203552,0.4272460639476776,-0.1525878757238388,60.0,224.0,1.0,Rest
288.87396240234375,250.428955078125,556.6478881835938,474.572265625,416.547119140625,465.0951232910156,596.4339599609375,695.76513671875,0.66943359375,-0.080810546875,0.7734375,0.4272460639476776,0.4882812201976776,0.1220703050494194,60.0,225.0,1.0,Rest
496.92401123046875,466.525634765625,772.476318359375,688.8807983398438,626.653564453125,676.5426635742188,809.8484497070312,909.716064453125,0.66748046875,-0.08154296875,0.7744140625,0.3051757514476776,0.6103515028953552,0.1831054538488388,60.0,226.0,1.0,Rest
581.9500732421875,554.23388671875,860.631591796875,776.2314453125,712.305419921875,762.283935546875,896.8414306640625,996.9772338867188,0.66455078125,-0.083251953125,0.772216796875,0.1525878757238388,0.7324218153953552,0.2441406100988388,60.0,227.0,1.0,Rest
657.0519409179688,632.0179443359375,939.2203369140625,854.3731079101562,788.6589965820312,839.1739501953125,975.0725708007812,1075.2083740234375,0.666015625,-0.083251953125,0.77490234375,0.0915527269244194,0.7019042372703552,0.1525878757238388,60.0,228.0,1.0,Rest
851.69091796875,832.7366333007812,1142.4423828125,1056.432861328125,985.8013916015625,1037.8363037109375,1178.0263671875,1279.145751953125,0.666259765625,-0.08349609375,0.7724609375,0.1831054538488388,0.6408690810203552,0.1525878757238388,60.0,229.0,1.0,Rest
1111.6864013671875,1097.828369140625,1411.82568359375,1325.369140625,1248.836669921875,1303.1961669921875,1450.7176513671875,1552.194580078125,0.665771484375,-0.08154296875,0.772705078125,0.1525878757238388,0.5187987685203552,0.1831054538488388,60.0,230.0,1.0,Rest
1291.036865234375,1277.4468994140625,1595.9146728515625,1509.815673828125,1430.064697265625,1486.39111328125,1639.7239990234375,1740.306884765625,0.665771484375,-0.081787109375,0.770751953125,0.0610351525247097,0.5493163466453552,0.1220703050494194,60.0,231.0,1.0,Rest
1356.1251220703125,1341.7305908203125,1661.9864501953125,1576.5133056640625,1495.5999755859375,1552.6416015625,1708.388671875,1808.5244140625,0.66650390625,-0.08154296875,0.771728515625,0.03051757626235485,0.4577636420726776,-0.0610351525247097,60.0,232.0,1.0,Rest
1430.154052734375,1413.8819580078125,1736.9989013671875,1652.3304443359375,1570.0760498046875,1627.92236328125,1785.993896484375,1885.6826171875,0.66796875,-0.080322265625,0.77197265625,-0.1220703050494194,0.2746581733226776,-0.2746581733226776,60.0,233.0,1.0,Rest
1652.5986328125,1628.6375732421875,1960.7845458984375,1878.6195068359375,1795.381591796875,1853.853759765625,2016.93212890625,2115.726806640625,0.66748046875,-0.08056640625,0.773681640625,-0.3662109076976776,0.2136230319738388,-0.3967284858226776,60.0,234.0,1.0,Rest
1964.7183837890625,1926.4522705078125,2271.294921875,2192.25927734375,2109.825927734375,2168.47705078125,2336.114990234375,2433.479248046875,0.669677734375,-0.07861328125,0.77099609375,-0.5187987685203552,0.3051757514476776,-0.4577636420726776,60.0,235.0,1.0,Rest
2202.3623046875,2152.7412109375,2506.256591796875,2429.187744140625,2348.453125,2406.388916015625,2575.546875,2672.553466796875,0.670654296875,-0.079345703125,0.770751953125,-0.6103515028953552,0.4882812201976776,-0.4272460639476776,60.0,236.0,1.0,Rest
2309.4716796875,2255.648681640625,2612.5615234375,2535.939697265625,2456.456787109375,2513.7666015625,2683.2822265625,2780.020751953125,0.66943359375,-0.08203125,0.77490234375,-0.8544921278953552,0.7019042372703552,-0.4272460639476776,60.0,237.0,1.0,Rest
2402.72314453125,2345.413330078125,2705.00830078125,2628.65478515625,2550.69189453125,2606.9287109375,2776.623291015625,2873.6298828125,0.666748046875,-0.08349609375,0.77587890625,-1.0070799589157104,1.1291502714157104,-0.4577636420726776,60.0,238.0,1.0,Rest
2625.167724609375,2561.15234375,2926.11181640625,2850.11572265625,2774.209228515625,2829.283935546875,2998.799560546875,3096.074462890625,0.667236328125,-0.084716796875,0.7783203125,-0.9460448622703552,1.5258787870407104,-0.3662109076976776,60.0,239.0,1.0,Rest
2930.49267578125,2860.21875,3229.8271484375,3153.56298828125,3080.3388671875,3134.251220703125,3302.69384765625,3400.68408203125,0.6669921875,-0.0869140625,0.77978515625,-0.7629393935203552,1.8615721464157104,-0.4882812201976776,60.0,240.0,1.0,Rest
3159.016845703125,3086.239501953125,3458.261962890625,3381.28271484375,3309.935791015625,3362.239013671875,3530.681640625,3629.029296875,0.665283203125,-0.092041015625,0.781005859375,-0.4882812201976776,2.105712652206421,-0.3662109076976776,60.0,241.0,1.0,Rest
3254.32470703125,3181.54736328125,3554.28515625,3476.679931640625,3406.316650390625,3458.172607421875,3626.2578125,3724.963134765625,0.665283203125,-0.093017578125,0.78515625,0.0,2.166747808456421,-0.2746581733226776,60.0,242.0,1.0,Rest
3336.66845703125,3264.159423828125,3636.807861328125,3559.38134765625,3489.19677734375,3541.231689453125,3708.780517578125,3807.932861328125,0.66259765625,-0.093017578125,0.7861328125,0.5187987685203552,2.166747808456421,-0.3051757514476776,60.0,243.0,1.0,Rest
3552.854736328125,3480.5244140625,3853.61962890625,3775.5673828125,3706.366455078125,3757.86474609375,3924.78759765625,4024.923583984375,0.66064453125,-0.092041015625,0.79052734375,1.0070799589157104,2.044677495956421,-0.3662109076976776,60.0,244.0,1.0,Rest
3851.9208984375,3781.2001953125,4154.5634765625,4075.080810546875,4007.131591796875,4058.272216796875,4224.83740234375,4325.77783203125,0.66064453125,-0.089599609375,0.792724609375,1.4953612089157104,1.7700194120407104,-0.3356933295726776,60.0,245.0,1.0,Rest
4079.461669921875,4009.813720703125,4383.892578125,4303.158203125,4235.7451171875,4286.70703125,4453.00390625,4554.212890625,0.66162109375,-0.08447265625,0.79638671875,1.9226073026657104,1.4038084745407104,-0.3967284858226776,60.0,246.0,1.0,Rest
4176.91552734375,4107.8037109375,4481.8828125,4401.14794921875,4333.64599609375,4384.96533203125,4550.994140625,4652.11328125,0.66064453125,-0.081787109375,0.8017578125,2.227782964706421,1.2512205839157104,-0.2746581733226776,60.0,247.0,1.0,Rest
4256.04052734375,4187.91259765625,4561.54443359375,4480.8095703125,4413.3076171875,4464.8955078125,4630.83447265625,4732.40087890625,0.660400390625,-0.079833984375,0.804931640625,2.410888433456421,1.0375975370407104,-0.03051757626235485,60.0,248.0,1.0,Rest
4464.26953125,4397.83984375,4771.9189453125,4690.55859375,4623.32421875,4674.912109375,4840.8515625,4942.775390625,0.658203125,-0.07861328125,0.80517578125,2.288818120956421,0.8544921278953552,0.3051757514476776,60.0,249.0,1.0,Rest
4752.78564453125,4688.23388671875,5063.02783203125,4980.86279296875,4913.71826171875,4965.57421875,5131.60302734375,5233.79541015625,0.65625,-0.07666015625,0.803955078125,2.136230230331421,0.5798339247703552,0.5798339247703552,60.0,250.0,1.0,Rest
4972.27978515625,4908.80078125,5284.0419921875,5201.60888671875,5134.5537109375,5186.3203125,5352.88525390625,5455.07763671875,0.65673828125,-0.07763671875,0.806396484375,2.014159917831421,0.4577636420726776,0.7629393935203552,60.0,251.0,1.0,Rest
5064.45849609375,5001.24755859375,5376.75732421875,5294.234375,5227.08984375,5278.8564453125,5445.86865234375,5547.703125,0.656494140625,-0.077392578125,0.803466796875,1.8005369901657104,0.2441406100988388,0.9155272841453552,60.0,252.0,1.0,Rest
5142.86865234375,5080.1044921875,5456.3291015625,5373.6279296875,5306.21484375,5357.9814453125,5525.1728515625,5627.4541015625,0.656494140625,-0.077880859375,0.8037109375,1.5563963651657104,0.03051757626235485,0.8544921278953552,60.0,253.0,1.0,Rest
5351.9912109375,5290.30029296875,5666.8828125,5584.091796875,5516.67919921875,5568.98193359375,5736.35205078125,5838.6337890625,0.65673828125,-0.07861328125,0.80322265625,1.3122557401657104,-0.2136230319738388,0.8850097060203552,60.0,254.0,1.0,Rest
5643.54736328125,5582.9296875,5960.40576171875,5877.07861328125,5810.0234375,5862.05810546875,6030.1435546875,6132.51416015625,0.655029296875,-0.078369140625,0.8056640625,1.0070799589157104,-0.5493163466453552,0.9155272841453552,60.0,255.0,1.0,Rest
5866.796875,5807.07275390625,6185.2646484375,6102.11572265625,6034.703125,6086.8271484375,6255.1806640625,6357.5517578125,0.65625,-0.080810546875,0.802978515625,0.8239745497703552,-0.7934569716453552,0.8850097060203552,60.0,256.0,1.0,Rest
5962.81982421875,5903.00634765625,6281.64501953125,6198.7646484375,6130.99462890625,6183.56591796875,6351.82958984375,6453.9326171875,0.654052734375,-0.08349609375,0.80078125,0.5798339247703552,-0.9765624403953552,0.7629393935203552,60.0,257.0,1.0,Rest
6040.8720703125,5981.1484375,6360.501953125,6277.1748046875,6209.2255859375,6262.24365234375,6430.6865234375,6532.6103515625,0.655029296875,-0.0859375,0.798583984375,0.3967284858226776,-1.0070799589157104,0.6713866591453552,60.0,258.0,1.0,Rest
6246.955078125,6187.767578125,6567.74755859375,6484.509765625,6416.38134765625,6469.66796875,6638.28955078125,6740.21337890625,0.65478515625,-0.0869140625,0.79833984375,0.2746581733226776,-1.1291502714157104,0.6103515028953552,60.0,259.0,1.0,Rest
6533.32568359375,6474.49609375,6855.99560546875,6772.04248046875,6704.45068359375,6757.55859375,6927.07421875,7028.72998046875,0.655517578125,-0.088623046875,0.79736328125,0.2441406100988388,-1.1596678495407104,0.5187987685203552,60.0,260.0,1.0,Rest
6752.28369140625,6693.09619140625,7075.93701171875,6992.16259765625,6924.12353515625,6977.32080078125,7147.10498046875,7249.38623046875,0.65576171875,-0.092041015625,0.7978515625,0.2441406100988388,-1.2207030057907104,0.3356933295726776,60.0,261.0,1.0,Rest
6845.80322265625,6786.705078125,7169.9033203125,7086.21875,7018.26904296875,7071.91357421875,7241.42919921875,7343.71044921875,0.65478515625,-0.09375,0.7958984375,0.2441406100988388,-1.1291502714157104,0.03051757626235485,60.0,262.0,1.0,Rest
6919.56396484375,6860.287109375,7244.02197265625,7160.3369140625,7092.29833984375,7145.9423828125,7315.54736328125,7418.0078125,0.6552734375,-0.0947265625,0.795654296875,0.3051757514476776,-1.0375975370407104,-0.1831054538488388,60.0,263.0,1.0,Rest
7117.33203125,7058.4130859375,7442.7734375,7359.267578125,7291.40771484375,7344.6943359375,7514.5673828125,7617.38525390625,0.65576171875,-0.0947265625,0.794189453125,0.5798339247703552,-1.0375975370407104,-0.4272460639476776,60.0,264.0,1.0,Rest
7406.74267578125,7347.73388671875,7733.2568359375,7649.39306640625,7582.337890625,7635.3564453125,7805.6767578125,7908.13720703125,0.656005859375,-0.09326171875,0.793212890625,0.6713866591453552,-0.9765624403953552,-0.7934569716453552,60.0,265.0,1.0,Rest
7627.22021484375,7568.03271484375,7954.89697265625,7870.8544921875,7803.888671875,7856.8173828125,8027.1376953125,8129.8662109375,0.65625,-0.091796875,0.79150390625,0.8850097060203552,-0.9155272841453552,-1.1596678495407104,60.0,266.0,1.0,Rest
7715.912109375,7656.81396484375,8043.677734375,7960.26123046875,7893.11669921875,7946.22412109375,8116.2763671875,8219.2734375,0.655029296875,-0.0859375,0.79248046875,0.8239745497703552,-0.8544921278953552,-1.6174315214157104,60.0,267.0,1.0,Rest
7783.14599609375,7723.6904296875,8111.0908203125,8027.22705078125,7960.61865234375,8013.369140625,8184.13623046875,8286.865234375,0.656494140625,-0.081787109375,0.79052734375,0.7019042372703552,-0.7934569716453552,-1.9836424589157104,60.0,268.0,1.0,Rest
7976.7119140625,7917.07763671875,8305.55078125,8221.6875,8154.6318359375,8207.740234375,8378.5966796875,8481.4140625,0.656494140625,-0.07861328125,0.791015625,0.4272460639476776,-0.6713866591453552,-2.136230230331421,60.0,269.0,1.0,Rest
8260.2216796875,8200.6767578125,8590.0439453125,8506.626953125,8439.482421875,8492.6796875,8663.447265625,8766.7119140625,0.6572265625,-0.076904296875,0.7919921875,-0.03051757626235485,-0.5493163466453552,-2.197265386581421,60.0,270.0,1.0,Rest
8479.6259765625,8419.8134765625,8810.4326171875,8726.658203125,8659.87109375,8713.2470703125,8884.0146484375,8987.4580078125,0.65576171875,-0.078125,0.7890625,-0.3967284858226776,-0.2441406100988388,-2.258300542831421,60.0,271.0,1.0,Rest
8568.765625,8508.7734375,8899.9287109375,8816.064453125,8749.3671875,8802.474609375,8973.4208984375,9076.865234375,0.65478515625,-0.076904296875,0.787353515625,-0.7324218153953552,-0.1525878757238388,-2.258300542831421,60.0,272.0,1.0,Rest
8634.568359375,8574.755859375,8966.0,8882.13671875,8815.439453125,8868.8154296875,9039.9404296875,9143.0263671875,0.6533203125,-0.076171875,0.792724609375,-0.8544921278953552,-0.0610351525247097,-2.258300542831421,60.0,273.0,1.0,Rest
8826.8828125,8766.7119140625,9159.208984375,9075.166015625,9008.55859375,9062.11328125,9233.595703125,9336.4130859375,0.652099609375,-0.076171875,0.79443359375,-1.0070799589157104,0.03051757626235485,-2.258300542831421,60.0,274.0,1.0,Rest
9110.3037109375,9049.8642578125,9443.43359375,9359.123046875,9293.140625,9346.248046875,9518.3564453125,9621.263671875,0.65087890625,-0.075439453125,0.7939453125,-0.9155272841453552,0.0,-2.380370855331421,60.0,275.0,1.0,Rest
9322.8232421875,9262.2060546875,9656.7587890625,9572.3583984375,9506.64453125,9559.6630859375,9731.5029296875,9835.1259765625,0.64990234375,-0.076416015625,0.795166015625,-0.8544921278953552,-0.1220703050494194,-2.258300542831421,60.0,276.0,1.0,Rest
9409.1015625,9348.662109375,9743.39453125,9659.1728515625,9593.279296875,9646.3876953125,9818.5849609375,9922.2080078125,0.652099609375,-0.073974609375,0.7978515625,-0.7324218153953552,-0.2746581733226776,-2.197265386581421,60.0,277.0,1.0,Rest
9473.83203125,9413.482421875,9808.482421875,9723.9931640625,9658.45703125,9711.2080078125,9883.673828125,9986.849609375,0.65478515625,-0.073486328125,0.800537109375,-0.7629393935203552,-0.4272460639476776,-2.044677495956421,60.0,278.0,1.0,Rest
9660.4248046875,9600.07421875,9995.0751953125,9911.1220703125,9845.4970703125,9898.6044921875,10070.8916015625,10174.24609375,0.6533203125,-0.072265625,0.800048828125,-0.7934569716453552,-0.6713866591453552,-1.7089842557907104,60.0,279.0,1.0,Rest
9938.3017578125,9877.7724609375,10273.5771484375,10189.802734375,10124.357421875,10177.46484375,10349.841796875,10453.375,0.654541015625,-0.072265625,0.797607421875,-0.5798339247703552,-0.9155272841453552,-1.5563963651657104,60.0,280.0,1.0,Rest
10156.9912109375,10096.1044921875,10493.25,10408.939453125,10344.208984375,10396.958984375,10569.3359375,10673.2265625,0.652587890625,-0.072998046875,0.797119140625,-0.4882812201976776,-1.1596678495407104,-1.3732908964157104,60.0,281.0,1.0,Rest
10245.146484375,10184.4384765625,10582.2998046875,10497.6318359375,10432.900390625,10485.740234375,10658.1171875,10761.8291015625,0.65234375,-0.07373046875,0.7939453125,-0.2441406100988388,-1.3427733182907104,-1.0375975370407104,60.0,282.0,1.0,Rest
10306.0322265625,10245.056640625,10643.4541015625,10558.517578125,10493.33984375,10546.7158203125,10719.0927734375,10822.71484375,0.651123046875,-0.076171875,0.79541015625,-0.1220703050494194,-1.5563963651657104,-0.7629393935203552,60.0,283.0,1.0,Rest
10487.6181640625,10426.4638671875,10825.3974609375,10740.2822265625,10675.193359375,10728.6591796875,10901.482421875,11005.10546875,0.653076171875,-0.074951171875,0.796142578125,0.1831054538488388,-1.6479490995407104,-0.6713866591453552,60.0,284.0,1.0,Rest
10762.455078125,10700.853515625,11100.681640625,11015.833984375,10951.103515625,11004.30078125,11177.482421875,11281.015625,0.652587890625,-0.076171875,0.795166015625,0.3356933295726776,-1.8005369901657104,-0.4882812201976776,60.0,285.0,1.0,Rest
10979.53515625,10918.0234375,11318.3876953125,11233.80859375,11168.8095703125,11222.275390625,11395.4560546875,11499.16796875,0.65234375,-0.07666015625,0.7900390625,0.5187987685203552,-1.9226073026657104,-0.3356933295726776,60.0,286.0,1.0,Rest
11068.4951171875,11007.072265625,11407.34765625,11322.857421875,11258.0380859375,11311.5029296875,11484.86328125,11588.3076171875,0.6533203125,-0.076416015625,0.7890625,0.7934569716453552,-1.8310545682907104,-0.1831054538488388,60.0,287.0,1.0,Rest
11126.162109375,11064.5615234375,11465.283203125,11380.525390625,11315.9736328125,11369.259765625,11542.3515625,11646.064453125,0.65283203125,-0.07421875,0.7880859375,1.0681151151657104,-1.7700194120407104,-0.2746581733226776,60.0,288.0,1.0,Rest
11303.1884765625,11241.408203125,11642.5771484375,11558.1767578125,11493.357421875,11546.7333984375,11719.7353515625,11823.984375,0.6552734375,-0.074462890625,0.786865234375,1.0986326932907104,-1.7395018339157104,-0.1525878757238388,60.0,289.0,1.0,Rest
11578.47265625,11516.2451171875,11918.755859375,11833.818359375,11769.3564453125,11822.642578125,11995.6455078125,12100.162109375,0.656494140625,-0.072021484375,0.787109375,1.0986326932907104,-1.6479490995407104,-0.1831054538488388,60.0,290.0,1.0,Rest
11797.162109375,11735.0244140625,12138.4287109375,12053.3125,11989.029296875,12042.4951171875,12215.5869140625,12319.74609375,0.65869140625,-0.06982421875,0.787109375,0.9765624403953552,-1.7089842557907104,-0.3051757514476776,60.0,291.0,1.0,Rest
11885.6748046875,11823.984375,12227.0302734375,12142.541015625,12077.810546875,12131.5439453125,12304.7255859375,12409.15234375,0.661376953125,-0.0673828125,0.787109375,0.7019042372703552,-1.5869139432907104,-0.1831054538488388,60.0,292.0,1.0,Rest
11942.716796875,11880.66796875,12283.8935546875,12199.404296875,12134.8515625,12188.7646484375,12362.125,12466.5517578125,0.6611328125,-0.068359375,0.786376953125,0.2441406100988388,-1.4953612089157104,-0.1525878757238388,60.0,293.0,1.0,Rest
12121.26171875,12059.302734375,12463.6015625,12378.2177734375,12313.9345703125,12367.9365234375,12541.3857421875,12645.90234375,0.6591796875,-0.069580078125,0.78662109375,-0.1525878757238388,-1.3427733182907104,0.0,60.0,294.0,1.0,Rest
12395.7412109375,12333.693359375,12738.7958984375,12653.412109375,12589.3974609375,12643.3994140625,12816.580078125,12921.0966796875,0.656982421875,-0.071533203125,0.7841796875,-0.4272460639476776,-1.2207030057907104,0.0915527269244194,60.0,295.0,1.0,Rest
12614.5205078125,12552.29296875,12958.0224609375,12872.548828125,12808.712890625,12862.625,13035.806640625,13140.2333984375,0.656494140625,-0.072998046875,0.783203125,-0.7324218153953552,-1.2817381620407104,0.1220703050494194,60.0,296.0,1.0,Rest
12702.318359375,12639.822265625,13045.9091796875,12960.3466796875,12896.509765625,12950.6015625,13123.603515625,13228.03125,0.65478515625,-0.076416015625,0.784423828125,-0.8239745497703552,-1.2207030057907104,0.1525878757238388,60.0,297.0,1.0,Rest
12755.6943359375,12693.1982421875,13099.1064453125,13014.080078125,12950.244140625,13004.15625,13177.337890625,13281.943359375,0.6552734375,-0.079345703125,0.7841796875,-0.8544921278953552,-1.1901854276657104,0.1220703050494194,60.0,298.0,1.0,Rest
12928.25,12865.486328125,13272.1083984375,13187.0830078125,13123.3359375,13177.0693359375,13350.5185546875,13455.482421875,0.65771484375,-0.080078125,0.781494140625,-0.8544921278953552,-1.2207030057907104,0.1525878757238388,60.0,299.0,1.0,Rest
13202.37109375,13139.7861328125,13546.8564453125,13461.6513671875,13397.904296875,13452.0849609375,13625.5341796875,13730.0517578125,0.657470703125,-0.081298828125,0.784912109375,-0.5493163466453552,-1.2512205839157104,0.0,60.0,300.0,1.0,Rest
13423.921875,13361.3369140625,13769.033203125,13683.828125,13620.0810546875,13674.4404296875,13847.6220703125,13952.3173828125,0.66064453125,-0.08251953125,0.78515625,-0.3051757514476776,-1.1596678495407104,-0.1220703050494194,60.0,301.0,1.0,Rest
13515.2060546875,13452.4423828125,13860.6748046875,13774.93359375,13711.5439453125,13765.724609375,13938.90625,14043.958984375,0.659912109375,-0.08251953125,0.781982421875,-0.03051757626235485,-1.0375975370407104,-0.1525878757238388,60.0,302.0,1.0,Rest
13568.224609375,13505.1923828125,13913.3359375,13827.5947265625,13764.205078125,13818.6533203125,13992.013671875,14096.9775390625,0.660888671875,-0.08154296875,0.784423828125,-0.1220703050494194,-1.0070799589157104,-0.2746581733226776,60.0,303.0,1.0,Rest
13741.763671875,13678.28515625,14087.0537109375,14001.3125,13938.1904296875,13992.4609375,14165.7314453125,14270.9638671875,0.663330078125,-0.080810546875,0.786865234375,-0.03051757626235485,-1.0986326932907104,-0.3967284858226776,60.0,304.0,1.0,Rest
14015.70703125,13952.2275390625,14361.17578125,14275.970703125,14212.849609375,14266.9404296875,14440.4794921875,14545.5322265625,0.66552734375,-0.080322265625,0.785888671875,-0.0915527269244194,-1.0070799589157104,-0.3662109076976776,60.0,305.0,1.0,Rest
14236.5419921875,14172.8837890625,14582.8154296875,14497.5205078125,14434.1318359375,14488.669921875,14661.671875,14767.26171875,0.667724609375,-0.082275390625,0.7841796875,-0.0915527269244194,-0.8239745497703552,-0.4272460639476776,60.0,306.0,1.0,Rest
14326.75390625,14263.3642578125,14673.5634765625,14588.1796875,14524.8798828125,14579.5068359375,14752.2412109375,14857.9208984375,0.665771484375,-0.08056640625,0.781005859375,-0.1220703050494194,-0.7324218153953552,-0.4882812201976776,60.0,307.0,1.0,Rest
14380.1298828125,14316.3828125,14727.20703125,14641.4658203125,14577.8974609375,14632.97265625,14805.6171875,14911.20703125,0.66455078125,-0.078369140625,0.780029296875,-0.1220703050494194,-0.7019042372703552,-0.5798339247703552,60.0,308.0,1.0,Rest
14550.986328125,14487.1494140625,14898.1533203125,14812.501953125,14748.93359375,14804.09765625,14977.189453125,15082.33203125,0.666259765625,-0.076904296875,0.780517578125,-0.1525878757238388,-0.4577636420726776,-0.5798339247703552,60.0,309.0,1.0,Rest
14822.3369140625,14758.7685546875,15170.0400390625,15084.388671875,15021.3564453125,15076.1630859375,15249.076171875,15353.9501953125,0.66650390625,-0.077392578125,0.783447265625,-0.1831054538488388,-0.1525878757238388,-0.5187987685203552,60.0,310.0,1.0,Rest
15040.5791015625,14976.6533203125,15388.55078125,15302.720703125,15239.9560546875,15295.03125,15461.41796875,15566.560546875,0.666748046875,-0.0771484375,0.789306640625,-0.3356933295726776,0.0610351525247097,-0.3356933295726776,60.0,311.0,1.0,Rest
15127.03515625,15062.9306640625,15474.470703125,15388.193359375,15326.4130859375,15381.2197265625,15538.12890625,15644.2548828125,0.664794921875,-0.079345703125,0.79150390625,-0.2136230319738388,0.3051757514476776,-0.0915527269244194,60.0,312.0,1.0,Rest
15173.7060546875,15109.7802734375,15519.62109375,15433.8798828125,15372.994140625,15428.068359375,15578.3623046875,15684.935546875,0.66064453125,-0.081298828125,0.79150390625,-0.03051757626235485,0.4577636420726776,-0.03051757626235485,60.0,313.0,1.0,Rest
15338.3046875,15274.3779296875,15671.5244140625,15585.693359375,15537.681640625,15592.6669921875,15754.494140625,15860.6201171875,0.659423828125,-0.084716796875,0.79248046875,0.3051757514476776,0.4577636420726776,0.1525878757238388,60.0,314.0,1.0,Rest
15601.8759765625,15538.0390625,15944.8408203125,15859.099609375,15794.9052734375,15849.533203125,16034.8740234375,16140.4638671875,0.65576171875,-0.08642578125,0.7958984375,0.7019042372703552,0.2136230319738388,0.2746581733226776,60.0,315.0,1.0,Rest
15801.611328125,15736.6123046875,16175.6005859375,16089.76953125,16009.03515625,16063.39453125,16255.5302734375,16361.0302734375,0.6572265625,-0.08447265625,0.7998046875,1.2817381620407104,0.0,0.2441406100988388,60.0,316.0,1.0,Rest
15871.4384765625,15805.90234375,16264.91796875,16179.35546875,16109.6181640625,16164.603515625,16344.4013671875,16450.34765625,0.654541015625,-0.086181640625,0.800537109375,1.6784666776657104,-0.5493163466453552,0.4577636420726776,60.0,317.0,1.0,Rest
15901.2998046875,15836.033203125,16310.962890625,16225.310546875,16155.3056640625,16210.6484375,16389.998046875,16496.125,0.656982421875,-0.084716796875,0.802978515625,2.105712652206421,-1.0375975370407104,0.5493163466453552,60.0,318.0,1.0,Rest
16068.7587890625,16003.40234375,16466.62109375,16380.6103515625,16317.7578125,16372.921875,16541.54296875,16647.490234375,0.6552734375,-0.081298828125,0.803955078125,2.319335699081421,-1.5258787870407104,0.7019042372703552,60.0,319.0,1.0,Rest
16387.048828125,16322.228515625,16726.080078125,16639.443359375,16592.7734375,16648.1171875,16809.048828125,16914.90625,0.6572265625,-0.080078125,0.803955078125,2.380370855331421,-1.8920897245407104,0.9460448622703552,60.0,320.0,1.0,Rest
16614.142578125,16549.142578125,16962.650390625,16876.373046875,16816.380859375,16871.8125,17043.7421875,17149.95703125,0.659912109375,-0.079345703125,0.80322265625,2.349853277206421,-2.349853277206421,1.1291502714157104,60.0,321.0,1.0,Rest
16701.134765625,16636.58203125,17051.96875,16965.689453125,16903.552734375,16959.07421875,17131.8984375,17238.0234375,0.6650390625,-0.077880859375,0.804931640625,2.075195074081421,-2.532958745956421,1.4038084745407104,60.0,322.0,1.0,Rest
16746.017578125,16681.375,17096.759765625,17010.751953125,16948.703125,17003.77734375,17177.2265625,17283.083984375,0.663330078125,-0.07958984375,0.80615234375,1.6174315214157104,-2.746581792831421,1.5563963651657104,60.0,323.0,1.0,Rest
16905.609375,16840.966796875,17257.783203125,17171.68359375,17103.01953125,17158.630859375,17337.623046875,17443.927734375,0.659912109375,-0.08349609375,0.802490234375,1.3427733182907104,-2.777099370956421,1.6784666776657104,60.0,324.0,1.0,Rest
17169.091796875,17104.271484375,17522.78515625,17436.41796875,17362.298828125,17418.537109375,17602.177734375,17709.109375,0.660888671875,-0.089599609375,0.80029296875,0.9155272841453552,-2.960204839706421,1.7700194120407104,60.0,325.0,1.0,Rest
17387.51171875,17322.06640625,17739.5078125,17653.498046875,17590.197265625,17646.078125,17819.34765625,17925.921875,0.6611328125,-0.091552734375,0.79443359375,0.6713866591453552,-2.960204839706421,1.6174315214157104,60.0,326.0,1.0,Rest
17476.203125,17410.490234375,17828.01953125,17742.189453125,17679.60546875,17735.484375,17907.681640625,18014.61328125,0.66162109375,-0.094970703125,0.79150390625,0.3967284858226776,-3.021239995956421,1.6174315214157104,60.0,327.0,1.0,Rest
17519.119140625,17453.404296875,17870.845703125,17785.10546875,17722.609375,17778.66796875,17950.59765625,18057.349609375,0.6611328125,-0.09619140625,0.791259765625,0.3967284858226776,-3.082275152206421,1.4648436307907104,60.0,328.0,1.0,Rest
17674.59765625,17608.794921875,18026.68359375,17940.94140625,17878.357421875,17934.4140625,18105.71875,18213.185546875,0.6611328125,-0.097412109375,0.788330078125,0.3051757514476776,-3.112792730331421,1.1596678495407104,60.0,329.0,1.0,Rest
17940.404296875,17874.69140625,18293.205078125,18207.1953125,18144.611328125,18200.580078125,18371.97265625,18479.349609375,0.664794921875,-0.099609375,0.785888671875,0.2441406100988388,-3.143310308456421,0.8239745497703552,60.0,330.0,1.0,Rest
18161.330078125,18095.4375,18513.951171875,18428.208984375,18365.892578125,18422.12890625,18593.5234375,18700.6328125,0.66259765625,-0.099609375,0.784423828125,0.3051757514476776,-3.173827886581421,0.5493163466453552,60.0,331.0,1.0,Rest
18251.630859375,18185.73828125,18603.984375,18518.599609375,18456.10546875,18512.341796875,18683.9140625,18791.201171875,0.663330078125,-0.099853515625,0.783935546875,0.2441406100988388,-3.112792730331421,0.1831054538488388,60.0,332.0,1.0,Rest
18289.44921875,18223.82421875,18641.802734375,18556.240234375,18493.833984375,18550.16015625,18721.5546875,18829.37890625,0.6640625,-0.09912109375,0.779052734375,0.2441406100988388,-3.051757574081421,-0.2441406100988388,60.0,333.0,1.0,Rest
18439.384765625,18373.40234375,18792.095703125,18706.443359375,18643.94921875,18700.095703125,18871.7578125,18979.671875,0.664306640625,-0.100830078125,0.77880859375,0.1831054538488388,-2.990722417831421,-0.7019042372703552,60.0,334.0,1.0,Rest
18697.146484375,18630.89453125,19050.482421875,18964.3828125,18902.24609375,18958.392578125,19129.517578125,19237.611328125,0.662841796875,-0.099609375,0.776123046875,0.1220703050494194,-2.990722417831421,-1.1291502714157104,60.0,335.0,1.0,Rest
18913.064453125,18846.90234375,19266.84765625,19180.568359375,19118.7890625,19174.84765625,19345.97265625,19454.154296875,0.664306640625,-0.09912109375,0.774658203125,0.0610351525247097,-2.868652105331421,-1.5869139432907104,60.0,336.0,1.0,Rest
19000.59375,18934.431640625,19354.197265625,19268.099609375,19206.228515625,19262.287109375,19433.94921875,19541.953125,0.665283203125,-0.0986328125,0.7744140625,-0.0915527269244194,-2.655029058456421,-1.9531248807907104,60.0,337.0,1.0,Rest
19038.412109375,18972.4296875,19392.1953125,19305.73828125,19243.869140625,19300.10546875,19472.03515625,19579.681640625,0.664306640625,-0.098388671875,0.77392578125,-0.3356933295726776,-2.380370855331421,-2.319335699081421,60.0,338.0,1.0,Rest
19185.21875,19119.056640625,19539.001953125,19452.1875,19390.49609375,19447.001953125,19618.6640625,19726.48828125,0.665283203125,-0.0966796875,0.774169921875,-0.5493163466453552,-2.105712652206421,-2.685546636581421,60.0,339.0,1.0,Rest
19443.873046875,19377.533203125,19797.8359375,19711.46875,19649.59765625,19706.37109375,19877.49609375,19985.41015625,0.664306640625,-0.09423828125,0.772705078125,-0.7019042372703552,-1.7700194120407104,-2.990722417831421,60.0,340.0,1.0,Rest
19665.154296875,19598.3671875,20019.296875,19933.197265625,19871.23828125,19928.01171875,20098.689453125,20206.783203125,0.6640625,-0.093994140625,0.774169921875,-0.7934569716453552,-1.5258787870407104,-3.448486089706421,60.0,341.0,1.0,Rest
19756.796875,19690.546875,20111.474609375,20025.375,19963.416015625,20020.189453125,20190.689453125,20299.498046875,0.66552734375,-0.092529296875,0.774658203125,-0.8850097060203552,-1.3732908964157104,-3.967284917831421,60.0,342.0,1.0,Rest
19796.404296875,19729.70703125,20151.171875,20064.89453125,20002.845703125,20059.88671875,20230.38671875,20339.10546875,0.665283203125,-0.089599609375,0.771728515625,-0.9765624403953552,-1.2512205839157104,-4.211425304412842,60.0,343.0,1.0,Rest
19945.53515625,19878.748046875,20300.302734375,20214.11328125,20151.9765625,20209.107421875,20379.337890625,20488.326171875,0.667236328125,-0.084228515625,0.774169921875,-1.0375975370407104,-1.0986326932907104,-4.272460460662842,60.0,344.0,1.0,Rest
20203.474609375,20136.5078125,20558.509765625,20472.322265625,20410.09375,20467.404296875,20637.27734375,20746.533203125,0.66748046875,-0.0830078125,0.777099609375,-1.0070799589157104,-0.9765624403953552,-4.333495616912842,60.0,345.0,1.0,Rest
20428.421875,20361.546875,20783.63671875,20697.359375,20635.578125,20692.26171875,20862.671875,20971.748046875,0.66552734375,-0.082763671875,0.778076171875,-1.1901854276657104,-0.9155272841453552,-4.455565929412842,60.0,346.0,1.0,Rest
20520.6015625,20453.45703125,20875.7265625,20789.447265625,20727.845703125,20784.44140625,20955.029296875,21064.017578125,0.6650390625,-0.079345703125,0.777587890625,-1.3122557401657104,-0.9765624403953552,-4.302978038787842,60.0,347.0,1.0,Rest
20559.76171875,20492.52734375,20914.974609375,20828.51953125,20766.91796875,20823.69140625,20994.099609375,21103.265625,0.665771484375,-0.079345703125,0.779296875,-1.2207030057907104,-1.1291502714157104,-4.241942882537842,60.0,348.0,1.0,Rest
20707.373046875,20640.228515625,21063.033203125,20976.48828125,20914.974609375,20972.10546875,21141.890625,21251.32421875,0.6669921875,-0.07568359375,0.77978515625,-1.2207030057907104,-1.2817381620407104,-4.028319835662842,60.0,349.0,1.0,Rest
20963.880859375,20896.46875,21319.900390625,21233.173828125,21171.841796875,21229.15234375,21398.935546875,21508.1015625,0.670166015625,-0.077392578125,0.780517578125,-1.2512205839157104,-1.2207030057907104,-3.906249761581421,60.0,350.0,1.0,Rest
21184.8046875,21117.302734375,21540.9140625,21454.45703125,21392.9453125,21450.255859375,21619.94921875,21729.65234375,0.669677734375,-0.074951171875,0.781982421875,-1.3122557401657104,-1.3122557401657104,-3.784179449081421,60.0,351.0,1.0,Rest
21270.279296875,21202.77734375,21626.296875,21539.751953125,21478.328125,21535.728515625,21705.244140625,21815.03515625,0.67138671875,-0.07373046875,0.78271484375,-1.3427733182907104,-1.4038084745407104,-3.509521245956421,60.0,352.0,1.0,Rest
21301.03515625,21233.353515625,21657.142578125,21570.23828125,21509.44140625,21566.484375,21736.0,21845.701171875,0.671142578125,-0.072021484375,0.78173828125,-1.4038084745407104,-1.5563963651657104,-3.143310308456421,60.0,353.0,1.0,Rest
21442.296875,21374.6171875,21798.40625,21711.234375,21650.615234375,21707.658203125,21877.083984375,21987.14453125,0.671875,-0.073974609375,0.78369140625,-1.5258787870407104,-1.5563963651657104,-2.716064214706421,60.0,354.0,1.0,Rest
21701.578125,21634.166015625,22058.400390625,21971.228515625,21910.1640625,21967.564453125,22136.810546875,22246.9609375,0.672119140625,-0.07666015625,0.783935546875,-1.5258787870407104,-1.6479490995407104,-2.227782964706421,60.0,355.0,1.0,Rest
21921.25,21853.48046875,22277.984375,22191.08203125,22129.837890625,22187.7734375,22356.751953125,22466.990234375,0.6708984375,-0.07861328125,0.784912109375,-1.3427733182907104,-1.7395018339157104,-1.8615721464157104,60.0,356.0,1.0,Rest
22012.53515625,21944.5859375,22369.1796875,22282.455078125,22221.12109375,22278.96875,22447.947265625,22558.09765625,0.668701171875,-0.082763671875,0.78076171875,-1.0986326932907104,-1.8920897245407104,-1.6479490995407104,60.0,357.0,1.0,Rest
22052.142578125,21984.193359375,22408.787109375,22321.705078125,22261.0859375,22318.576171875,22487.46484375,22597.79296875,0.668212890625,-0.084228515625,0.780517578125,-0.6713866591453552,-2.075195074081421,-1.5258787870407104,60.0,358.0,1.0,Rest
22196.712890625,22128.67578125,22553.626953125,22466.275390625,22405.8359375,22462.96875,22632.037109375,22742.275390625,0.670166015625,-0.0830078125,0.780517578125,-0.3356933295726776,-2.197265386581421,-1.2512205839157104,60.0,359.0,1.0,Rest
22457.603515625,22389.654296875,22814.78515625,22727.43359375,22666.81640625,22724.3046875,22893.10546875,23003.611328125,0.66943359375,-0.081787109375,0.776611328125,0.0,-2.319335699081421,-1.0986326932907104,60.0,360.0,1.0,Rest
22684.517578125,22616.2109375,23041.69921875,22954.70703125,22894.087890625,22951.48828125,23120.01953125,23230.705078125,0.67041015625,-0.08251953125,0.773681640625,0.3051757514476776,-2.319335699081421,-0.9765624403953552,60.0,361.0,1.0,Rest
22779.021484375,22711.072265625,23136.380859375,23049.388671875,22988.94921875,23046.169921875,23214.970703125,23325.4765625,0.669677734375,-0.08251953125,0.775390625,0.6103515028953552,-2.166747808456421,-0.8544921278953552,60.0,362.0,1.0,Rest
22808.435546875,22740.3984375,23166.064453125,23078.982421875,23018.36328125,23075.853515625,23244.384765625,23354.802734375,0.670166015625,-0.082763671875,0.77587890625,0.7019042372703552,-1.8310545682907104,-0.7019042372703552,60.0,363.0,1.0,Rest
22946.390625,22878.083984375,23304.109375,23216.66796875,23156.140625,23213.896484375,23382.25,23493.205078125,0.66845703125,-0.0849609375,0.779541015625,0.8239745497703552,-1.5869139432907104,-0.7934569716453552,60.0,364.0,1.0,Rest
23199.94921875,23131.1953125,23557.666015625,23470.31640625,23409.876953125,23467.634765625,23635.271484375,23746.673828125,0.666259765625,-0.08642578125,0.778076171875,1.0070799589157104,-1.2512205839157104,-0.7629393935203552,60.0,365.0,1.0,Rest
23423.646484375,23354.53515625,23781.453125,23694.1015625,23633.751953125,23691.95703125,23859.05859375,23970.548828125,0.66357421875,-0.086669921875,0.777587890625,1.2207030057907104,-0.8850097060203552,-0.8850097060203552,60.0,366.0,1.0,Rest
23521.546875,23452.166015625,23879.173828125,23791.734375,23731.83203125,23789.857421875,23956.958984375,24068.626953125,0.662109375,-0.088623046875,0.7783203125,1.4648436307907104,-0.7629393935203552,-0.9155272841453552,60.0,367.0,1.0,Rest
23562.2265625,23493.115234375,23919.85546875,23832.68359375,23772.6015625,23830.626953125,23997.818359375,24109.576171875,0.66162109375,-0.08740234375,0.7822265625,1.5869139432907104,-0.4882812201976776,-1.1901854276657104,60.0,368.0,1.0,Rest
23697.857421875,23628.833984375,24055.6640625,23968.58203125,23908.41015625,23966.79296875,24133.26953125,24245.296875,0.661376953125,-0.0869140625,0.78369140625,1.8005369901657104,-0.3967284858226776,-1.3732908964157104,60.0,369.0,1.0,Rest
23942.83203125,23873.8984375,24300.90625,24213.9140625,24153.654296875,24212.126953125,24378.51171875,24490.896484375,0.657470703125,-0.0859375,0.783447265625,1.9226073026657104,-0.3967284858226776,-1.7395018339157104,60.0,370.0,1.0,Rest
24163.845703125,24094.9140625,24522.189453125,24435.017578125,24375.115234375,24433.318359375,24599.794921875,24712.1796875,0.65673828125,-0.082763671875,0.783203125,1.9836424589157104,-0.3356933295726776,-1.9836424589157104,60.0,371.0,1.0,Rest
24254.05859375,24185.03515625,24612.669921875,24524.87109375,24465.236328125,24523.44140625,24690.005859375,24802.30078125,0.65576171875,-0.084228515625,0.78271484375,2.044677495956421,-0.3967284858226776,-2.227782964706421,60.0,372.0,1.0,Rest
24280.1640625,24211.052734375,24638.6875,24550.798828125,24491.25390625,24549.458984375,24715.93359375,24828.498046875,0.654296875,-0.08203125,0.787353515625,1.9531248807907104,-0.4577636420726776,-2.441406011581421,60.0,373.0,1.0,Rest
24401.22265625,24332.021484375,24759.833984375,24672.125,24612.400390625,24670.6953125,24837.169921875,24949.64453125,0.653564453125,-0.0810546875,0.789306640625,2.044677495956421,-0.4577636420726776,-2.655029058456421,60.0,374.0,1.0,Rest
24636.00390625,24566.53515625,24994.52734375,24907.17578125,24847.36328125,24905.923828125,25071.953125,25184.427734375,0.6533203125,-0.078125,0.78955078125,2.014159917831421,-0.5187987685203552,-2.960204839706421,60.0,375.0,1.0,Rest
24828.318359375,24758.939453125,25186.9296875,25099.400390625,25039.23046875,25098.41796875,25264.267578125,25376.919921875,0.6513671875,-0.072998046875,0.787353515625,1.8310545682907104,-0.5798339247703552,-3.234863042831421,60.0,376.0,1.0,Rest
24889.294921875,24819.736328125,25248.083984375,25160.197265625,25100.384765625,25159.392578125,25325.599609375,25437.984375,0.6533203125,-0.067626953125,0.786376953125,1.5563963651657104,-0.6103515028953552,-3.417968511581421,60.0,377.0,1.0,Rest
24886.791015625,24817.232421875,25245.58203125,25157.693359375,25098.1484375,25157.068359375,25323.0078125,25435.302734375,0.65478515625,-0.063232421875,0.787353515625,1.1596678495407104,-0.5187987685203552,-3.631591558456421,60.0,378.0,1.0,Rest
24992.470703125,24922.5546875,25350.9921875,25263.552734375,25203.91796875,25262.658203125,25428.59765625,25540.982421875,0.654541015625,-0.059814453125,0.79150390625,0.6408690810203552,-0.3967284858226776,-3.631591558456421,60.0,379.0,1.0,Rest
25214.2890625,25144.103515625,25572.810546875,25485.37109375,25425.2890625,25484.4765625,25650.05859375,25762.890625,0.654296875,-0.0595703125,0.79345703125,0.0,-0.2136230319738388,-3.662109136581421,60.0,380.0,1.0,Rest
25416.4375,25346.34375,25775.318359375,25687.876953125,25627.884765625,25686.71484375,25852.38671875,25965.396484375,0.6552734375,-0.05712890625,0.793212890625,-0.6103515028953552,-0.1525878757238388,-3.723144292831421,60.0,381.0,1.0,Rest
25486.98046875,25416.794921875,25846.306640625,25758.15234375,25698.6953125,25757.525390625,25923.017578125,26036.1171875,0.6533203125,-0.057861328125,0.792724609375,-1.0986326932907104,-0.1220703050494194,-3.692626714706421,60.0,382.0,1.0,Rest
25485.28125,25415.0078125,25844.4296875,25756.185546875,25697.0859375,25756.005859375,25920.9609375,26034.5078125,0.652587890625,-0.060302734375,0.79248046875,-1.4038084745407104,-0.1525878757238388,-3.814697027206421,60.0,383.0,1.0,Rest
25585.865234375,25515.6796875,25945.01171875,25856.9453125,25797.759765625,25856.677734375,26021.09765625,26135.359375,0.653564453125,-0.061279296875,0.790283203125,-1.4953612089157104,-0.2746581733226776,-3.784179449081421,60.0,384.0,1.0,Rest
25803.837890625,25733.38671875,26163.076171875,26074.919921875,26015.822265625,26074.65234375,26239.25,26353.244140625,0.654296875,-0.05908203125,0.792236328125,-1.4953612089157104,-0.5798339247703552,-3.784179449081421,60.0,385.0,1.0,Rest
26008.580078125,25938.126953125,26368.0859375,26279.841796875,26220.921875,26279.931640625,26443.724609375,26558.25390625,0.65478515625,-0.058837890625,0.7919921875,-1.5869139432907104,-0.8850097060203552,-3.814697027206421,60.0,386.0,1.0,Rest
26093.248046875,26022.796875,26452.486328125,26364.419921875,26305.58984375,26364.419921875,26528.302734375,26642.833984375,0.6572265625,-0.05712890625,0.78955078125,-1.5869139432907104,-1.1901854276657104,-3.631591558456421,60.0,387.0,1.0,Rest
26104.24609375,26033.79296875,26463.482421875,26375.41796875,26316.408203125,26374.970703125,26539.568359375,26653.830078125,0.66064453125,-0.05419921875,0.787109375,-1.6784666776657104,-1.4038084745407104,-3.509521245956421,60.0,388.0,1.0,Rest
26209.92578125,26139.47265625,26569.4296875,26481.275390625,26421.998046875,26481.095703125,26645.873046875,26760.046875,0.66259765625,-0.052490234375,0.7841796875,-1.7700194120407104,-1.4648436307907104,-3.234863042831421,60.0,389.0,1.0,Rest
26436.572265625,26365.76171875,26796.345703125,26707.921875,26648.734375,26708.1015625,26872.431640625,26986.693359375,0.664306640625,-0.051513671875,0.78076171875,-1.9226073026657104,-1.4343260526657104,-2.807616949081421,60.0,390.0,1.0,Rest
26639.97265625,26569.072265625,26999.65625,26911.412109375,26852.314453125,26911.6796875,27075.5625,27190.09375,0.664306640625,-0.054443359375,0.782470703125,-1.9836424589157104,-1.4343260526657104,-2.471923589706421,60.0,391.0,1.0,Rest
26720.88671875,26650.611328125,27080.837890625,26992.68359375,26933.673828125,26992.951171875,27156.744140625,27271.275390625,0.66650390625,-0.0556640625,0.78076171875,-1.9531248807907104,-1.2207030057907104,-2.288818120956421,60.0,392.0,1.0,Rest
26735.548828125,26665.095703125,27095.501953125,27007.255859375,26948.248046875,27007.703125,27171.228515625,27285.759765625,0.665771484375,-0.054443359375,0.777099609375,-1.8310545682907104,-0.9460448622703552,-1.8920897245407104,60.0,393.0,1.0,Rest
26837.5625,26766.9296875,27197.693359375,27109.359375,27050.26171875,27109.716796875,27273.509765625,27388.130859375,0.6669921875,-0.058349609375,0.775146484375,-1.6784666776657104,-0.6103515028953552,-1.6174315214157104,60.0,394.0,1.0,Rest
27056.341796875,26985.619140625,27416.47265625,27328.228515625,27269.486328125,27328.49609375,27492.37890625,27607.4453125,0.668212890625,-0.06298828125,0.77587890625,-1.3427733182907104,-0.3662109076976776,-1.1596678495407104,60.0,395.0,1.0,Rest
27264.123046875,27193.40234375,27624.34375,27536.1875,27477.447265625,27536.814453125,27700.4296875,27815.31640625,0.668212890625,-0.06787109375,0.776123046875,-0.7019042372703552,-0.1220703050494194,-0.7324218153953552,60.0,396.0,1.0,Rest
27348.61328125,27277.802734375,27709.1015625,27620.498046875,27561.84765625,27621.392578125,27785.0078125,27899.806640625,0.66650390625,-0.069580078125,0.777587890625,0.0,-0.0610351525247097,-0.2746581733226776,60.0,397.0,1.0,Rest
27363.185546875,27292.107421875,27723.673828125,27634.71484375,27576.2421875,27635.697265625,27798.955078125,27914.46875,0.665771484375,-0.070068359375,0.779541015625,0.7019042372703552,-0.03051757626235485,-0.0610351525247097,60.0,398.0,1.0,Rest
27466.541015625,27395.283203125,27826.939453125,27738.158203125,27679.685546875,27739.052734375,27902.220703125,28017.912109375,0.665283203125,-0.07275390625,0.784423828125,1.4953612089157104,-0.1220703050494194,0.1831054538488388,60.0,399.0,1.0,Rest
27685.765625,27614.5078125,28046.43359375,27958.099609375,27899.5390625,27958.904296875,28121.71484375,28237.5859375,0.66357421875,-0.073486328125,0.78955078125,2.319335699081421,-0.1831054538488388,0.3967284858226776,60.0,400.0,1.0,Rest
27893.01171875,27822.201171875,28254.126953125,28165.61328125,28106.783203125,28166.41796875,28329.048828125,28445.099609375,0.66064453125,-0.07373046875,0.790771484375,3.051757574081421,-0.2746581733226776,0.6408690810203552,60.0,401.0,1.0,Rest
27975.98046875,27904.9921875,28336.73828125,28248.224609375,28189.6640625,28249.38671875,28411.83984375,28527.7109375,0.661376953125,-0.06787109375,0.792236328125,3.875732183456421,-0.7019042372703552,0.9155272841453552,60.0,402.0,1.0,Rest
27988.498046875,27917.59765625,28349.43359375,28260.564453125,28201.912109375,28261.814453125,28424.177734375,28540.408203125,0.659912109375,-0.06201171875,0.792236328125,4.272460460662842,-0.8239745497703552,1.0070799589157104,60.0,403.0,1.0,Rest
28088.365234375,28017.376953125,28449.748046875,28360.966796875,28302.138671875,28361.951171875,28524.404296875,28640.72265625,0.660888671875,-0.059814453125,0.795166015625,4.425048351287842,-1.0681151151657104,1.1291502714157104,60.0,404.0,1.0,Rest
28311.435546875,28240.357421875,28672.73046875,28583.6796875,28525.296875,28585.111328125,28747.1171875,28863.79296875,0.660888671875,-0.059814453125,0.794189453125,4.302978038787842,-1.3732908964157104,1.2512205839157104,60.0,405.0,1.0,Rest
28523.8671875,28452.251953125,28884.982421875,28795.6640625,28737.728515625,28797.36328125,28959.546875,29076.134765625,0.661865234375,-0.05615234375,0.790771484375,4.119872570037842,-1.5258787870407104,1.3732908964157104,60.0,406.0,1.0,Rest
28613.990234375,28542.552734375,28975.103515625,28885.876953125,28827.8515625,28887.84375,29049.759765625,29166.255859375,0.6611328125,-0.05322265625,0.790771484375,3.570556402206421,-1.5563963651657104,1.3427733182907104,60.0,407.0,1.0,Rest
28630.88671875,28559.80859375,28992.26953125,28902.953125,28844.837890625,28904.47265625,29066.74609375,29183.154296875,0.660888671875,-0.050537109375,0.79150390625,2.960204839706421,-1.5258787870407104,1.2207030057907104,60.0,408.0,1.0,Rest
28734.77734375,28663.1640625,29095.892578125,29006.6640625,28948.728515625,29008.54296875,29170.458984375,29287.3125,0.660888671875,-0.05029296875,0.78955078125,2.227782964706421,-1.6479490995407104,1.2512205839157104,60.0,409.0,1.0,Rest
28962.140625,28890.16796875,29323.5234375,29234.205078125,29176.537109375,29236.44140625,29397.8203125,29514.853515625,0.659912109375,-0.053955078125,0.7890625,1.5258787870407104,-1.5258787870407104,1.2207030057907104,60.0,410.0,1.0,Rest
29170.994140625,29099.201171875,29532.736328125,29443.328125,29385.572265625,29445.384765625,29606.943359375,29723.708984375,0.6591796875,-0.054443359375,0.7880859375,0.8239745497703552,-1.4038084745407104,1.2512205839157104,60.0,411.0,1.0,Rest
29258.8828125,29186.998046875,29620.533203125,29531.21484375,29473.279296875,29533.451171875,29694.919921875,29811.86328125,0.656005859375,-0.0595703125,0.786376953125,0.2441406100988388,-1.2512205839157104,1.1596678495407104,60.0,412.0,1.0,Rest
29275.6015625,29204.1640625,29637.431640625,29548.29296875,29490.177734375,29550.6171875,29711.99609375,29829.029296875,0.656982421875,-0.0625,0.785888671875,-0.03051757626235485,-1.1596678495407104,1.0070799589157104,60.0,413.0,1.0,Rest
29373.6796875,29302.154296875,29735.599609375,29646.193359375,29588.615234375,29648.78515625,29809.62890625,29927.01953125,0.656005859375,-0.0654296875,0.784912109375,-0.3051757514476776,-1.2512205839157104,0.7019042372703552,60.0,414.0,1.0,Rest
29597.64453125,29525.8515625,29959.654296875,29869.978515625,29812.66796875,29872.75,30033.236328125,30151.07421875,0.658203125,-0.0703125,0.782958984375,-0.4272460639476776,-1.2817381620407104,0.4272460639476776,60.0,415.0,1.0,Rest
29813.205078125,29741.0546875,30175.392578125,30085.62890625,30028.138671875,30087.953125,30248.6171875,30366.90234375,0.6591796875,-0.071533203125,0.781494140625,-0.3662109076976776,-1.3732908964157104,0.2441406100988388,60.0,416.0,1.0,Rest
29904.220703125,29832.337890625,30266.85546875,30176.734375,30119.69140625,30179.68359375,30340.169921875,30457.830078125,0.658447265625,-0.07080078125,0.783447265625,-0.3662109076976776,-1.4648436307907104,0.0915527269244194,60.0,417.0,1.0,Rest
29919.0625,29847.001953125,30281.33984375,30191.576171875,30134.35546875,30194.4375,30354.654296875,30472.4921875,0.658935546875,-0.070068359375,0.7822265625,-0.2136230319738388,-1.6174315214157104,0.03051757626235485,60.0,418.0,1.0,Rest
30016.962890625,29944.90234375,30379.15234375,30289.296875,30232.79296875,30292.248046875,30452.46484375,30570.662109375,0.659912109375,-0.068115234375,0.7841796875,-0.3662109076976776,-1.6784666776657104,0.0,60.0,419.0,1.0,Rest
30239.9453125,30168.240234375,30602.310546875,30512.3671875,30456.041015625,30515.318359375,30675.8046875,30794.08984375,0.662109375,-0.0673828125,0.7822265625,-0.3356933295726776,-1.6174315214157104,-0.0915527269244194,60.0,420.0,1.0,Rest
30458.455078125,30386.751953125,30821.357421875,30731.4140625,30675.0,30734.1875,30894.494140625,31012.8671875,0.662109375,-0.067138671875,0.77880859375,-0.4577636420726776,-1.5258787870407104,0.0610351525247097,60.0,421.0,1.0,Rest
30554.74609375,30482.326171875,30917.470703125,30827.4375,30770.84375,30830.56640625,30990.60546875,31108.802734375,0.663330078125,-0.066162109375,0.779052734375,-0.4272460639476776,-1.4648436307907104,0.0915527269244194,60.0,422.0,1.0,Rest
30568.962890625,30496.54296875,30931.775390625,30841.7421875,30785.1484375,30844.873046875,31005.267578125,31123.375,0.664306640625,-0.06591796875,0.780517578125,-0.4882812201976776,-1.4038084745407104,0.0915527269244194,60.0,423.0,1.0,Rest
30668.650390625,30596.052734375,31031.28515625,30941.431640625,30884.658203125,30944.740234375,31104.509765625,31223.421875,0.66552734375,-0.06396484375,0.77978515625,-0.5493163466453552,-1.4038084745407104,0.2441406100988388,60.0,424.0,1.0,Rest
30892.2578125,30820.017578125,31255.072265625,31165.12890625,31108.35546875,31168.705078125,31327.669921875,31447.1171875,0.66552734375,-0.064208984375,0.781005859375,-0.7324218153953552,-1.3122557401657104,0.4882812201976776,60.0,425.0,1.0,Rest
31115.23828125,31042.908203125,31478.23046875,31388.19921875,31331.603515625,31391.775390625,31550.830078125,31670.099609375,0.66552734375,-0.06787109375,0.783203125,-0.8544921278953552,-1.2817381620407104,0.5187987685203552,60.0,426.0,1.0,Rest
31212.513671875,31140.00390625,31575.416015625,31485.205078125,31428.96875,31488.9609375,31648.10546875,31767.462890625,0.663330078125,-0.068603515625,0.7841796875,-0.8239745497703552,-1.2512205839157104,0.7324218153953552,60.0,427.0,1.0,Rest
31225.03125,31152.431640625,31588.0234375,31497.900390625,31441.75390625,31501.298828125,31660.890625,31780.337890625,0.664306640625,-0.072509765625,0.7822265625,-0.6713866591453552,-1.2512205839157104,0.9155272841453552,60.0,428.0,1.0,Rest
31320.427734375,31248.365234375,31683.599609375,31593.38671875,31537.240234375,31596.78515625,31756.82421875,31875.734375,0.6650390625,-0.073486328125,0.78173828125,-0.4577636420726776,-1.3427733182907104,1.0986326932907104,60.0,429.0,1.0,Rest
31543.587890625,31471.16796875,31907.1171875,31816.7265625,31760.490234375,31820.48046875,31979.625,32099.162109375,0.6640625,-0.075439453125,0.78125,-0.2441406100988388,-1.5563963651657104,1.2512205839157104,60.0,430.0,1.0,Rest
31767.015625,31694.328125,32130.544921875,32039.88671875,31983.828125,32043.8203125,32202.875,32322.76953125,0.665771484375,-0.074462890625,0.776611328125,0.1220703050494194,-1.8310545682907104,1.1291502714157104,60.0,431.0,1.0,Rest
31866.8828125,31794.1953125,32230.76953125,32139.84375,32083.962890625,32143.955078125,32302.83203125,32422.81640625,0.66552734375,-0.072509765625,0.777587890625,0.2746581733226776,-2.075195074081421,1.1291502714157104,60.0,432.0,1.0,Rest
31879.580078125,31807.25,32243.376953125,32152.806640625,32097.107421875,32156.830078125,32315.974609375,32435.69140625,0.666259765625,-0.070068359375,0.77734375,0.2136230319738388,-2.319335699081421,1.0681151151657104,60.0,433.0,1.0,Rest
31969.791015625,31897.4609375,32333.498046875,32243.01953125,32187.408203125,32246.7734375,32406.09765625,32526.08203125,0.672119140625,-0.068115234375,0.7744140625,0.1525878757238388,-2.441406011581421,1.0986326932907104,60.0,434.0,1.0,Rest
32193.041015625,32120.7109375,32556.92578125,32466.447265625,32410.388671875,32470.291015625,32628.98828125,32749.419921875,0.675537109375,-0.066650390625,0.771484375,0.0,-2.593993902206421,1.2207030057907104,60.0,435.0,1.0,Rest
32418.61328125,32346.10546875,32782.94921875,32691.931640625,32636.140625,32696.22265625,32854.5625,32975.171875,0.677490234375,-0.06787109375,0.770263671875,-0.4577636420726776,-2.410888433456421,1.3122557401657104,60.0,436.0,1.0,Rest
32516.873046875,32444.18359375,32881.1171875,32790.1015625,32734.48828125,32794.390625,32952.8203125,33073.51953125,0.677490234375,-0.067138671875,0.764404296875,-0.8239745497703552,-2.380370855331421,1.4343260526657104,60.0,437.0,1.0,Rest
32528.94140625,32456.25390625,32893.1875,32802.4375,32746.46875,32806.73046875,32964.80078125,33085.3203125,0.6767578125,-0.070068359375,0.762939453125,-1.1901854276657104,-2.136230230331421,1.4038084745407104,60.0,438.0,1.0,Rest
32619.154296875,32546.287109375,32983.21875,32892.29296875,32836.58984375,32896.94140625,33054.8359375,33175.62109375,0.676025390625,-0.073974609375,0.763916015625,-1.4648436307907104,-1.9531248807907104,1.2817381620407104,60.0,439.0,1.0,Rest
32841.5078125,32768.375,33205.484375,33114.828125,33059.03515625,33119.4765625,33276.921875,33398.24609375,0.67578125,-0.07861328125,0.761962890625,-1.5869139432907104,-1.7700194120407104,1.1596678495407104,60.0,440.0,1.0,Rest
33065.47265625,32992.515625,33429.80859375,33338.5234375,33283.44921875,33343.9765625,33501.33203125,33622.65625,0.676513671875,-0.0830078125,0.75927734375,-1.6174315214157104,-1.4648436307907104,1.0375975370407104,60.0,441.0,1.0,Rest
33168.29296875,33095.42578125,33533.0703125,33441.16015625,33386.17578125,33446.79296875,33603.97265625,33725.921875,0.6748046875,-0.083740234375,0.75927734375,-1.4648436307907104,-1.1596678495407104,0.7324218153953552,60.0,442.0,1.0,Rest
33181.5234375,33108.4765625,33546.21484375,33454.75,33399.5859375,33460.29296875,33617.47265625,33739.3359375,0.674560546875,-0.08251953125,0.759765625,-1.4953612089157104,-1.1596678495407104,0.6408690810203552,60.0,443.0,1.0,Rest
33271.109375,33198.0625,33635.7109375,33544.6953125,33489.44140625,33549.87890625,33706.7890625,33828.7421875,0.677978515625,-0.08154296875,0.7626953125,-1.6174315214157104,-0.8239745497703552,0.3662109076976776,60.0,444.0,1.0,Rest
33492.83984375,33420.15234375,33857.70703125,33766.42578125,33711.52734375,33772.05859375,33928.609375,34050.73828125,0.677490234375,-0.08056640625,0.761474609375,-1.5258787870407104,-0.5798339247703552,0.4272460639476776,60.0,445.0,1.0,Rest
33719.84375,33646.9765625,34084.71484375,33993.51953125,33938.53125,33999.23828125,34155.61328125,34278.1015625,0.678955078125,-0.0830078125,0.763916015625,-1.6174315214157104,-0.2441406100988388,0.4882812201976776,60.0,446.0,1.0,Rest
33819.7109375,33746.57421875,34185.02734375,34092.9375,34038.04296875,34099.109375,34255.03515625,34377.69921875,0.677001953125,-0.085693359375,0.7666015625,-1.6479490995407104,0.0,0.4882812201976776,60.0,447.0,1.0,Rest
33831.421875,33758.109375,34196.65234375,34104.3828125,34049.84375,34110.4609375,34267.1015625,34389.58984375,0.673828125,-0.09130859375,0.766357421875,-1.6784666776657104,0.1525878757238388,0.6408690810203552,60.0,448.0,1.0,Rest
33916.62890625,33843.3125,34281.765625,34189.41015625,34134.87109375,34195.66796875,34352.30859375,34474.6171875,0.671142578125,-0.09228515625,0.769287109375,-1.4953612089157104,0.2136230319738388,0.7324218153953552,60.0,449.0,1.0,Rest
34134.78125,34061.9140625,34500.09765625,34407.828125,34353.73828125,34414.4453125,34570.640625,34692.94921875,0.669921875,-0.094482421875,0.76953125,-1.1291502714157104,0.3662109076976776,0.8850097060203552,60.0,450.0,1.0,Rest
34360.53515625,34287.3984375,34725.58203125,34633.40234375,34579.40234375,34640.109375,34796.21484375,34918.87890625,0.66357421875,-0.100341796875,0.7724609375,-0.6408690810203552,0.3356933295726776,0.7324218153953552,60.0,451.0,1.0,Rest
34461.296875,34387.98046875,34826.43359375,34734.25390625,34680.07421875,34740.87109375,34896.70703125,35019.28515625,0.662841796875,-0.098388671875,0.7724609375,-0.0915527269244194,0.2441406100988388,0.6408690810203552,60.0,452.0,1.0,Rest
34471.12890625,34397.81640625,34836.625,34744.359375,34690.0859375,34750.97265625,34906.80859375,35029.56640625,0.66455078125,-0.094970703125,0.77197265625,0.3967284858226776,0.1525878757238388,0.6103515028953552,60.0,453.0,1.0,Rest
34554.1875,34480.78515625,34919.7734375,34827.68359375,34773.4140625,34833.9453125,34989.95703125,35112.984375,0.66650390625,-0.09375,0.774658203125,0.6713866591453552,0.0,0.4882812201976776,60.0,454.0,1.0,Rest
34772.43359375,34699.38671875,35137.92578125,35045.83984375,34991.92578125,35052.36328125,35208.37890625,35331.31640625,0.6669921875,-0.09033203125,0.7744140625,0.7934569716453552,-0.2136230319738388,0.4882812201976776,60.0,455.0,1.0,Rest
34999.16796875,34926.2109375,35365.55859375,35272.484375,35219.01953125,35279.37109375,35435.20703125,35558.765625,0.66650390625,-0.088134765625,0.778076171875,0.7629393935203552,-0.3356933295726776,0.4882812201976776,60.0,456.0,1.0,Rest
35102.87890625,35030.19140625,35469.44921875,35376.01953125,35323.1796875,35383.34765625,35539.1875,35662.4765625,0.66650390625,-0.085693359375,0.77880859375,0.6103515028953552,-0.2136230319738388,0.5493163466453552,60.0,457.0,1.0,Rest
35114.32421875,35041.3671875,35480.35546875,35387.37109375,35333.99609375,35394.52734375,35550.18359375,35673.296875,0.667724609375,-0.0859375,0.7783203125,0.2441406100988388,-0.1831054538488388,0.4882812201976776,60.0,458.0,1.0,Rest
35196.04296875,35122.55078125,35562.07421875,35469.26953125,35415.625,35476.15234375,35631.90234375,35755.28125,0.6669921875,-0.0869140625,0.77978515625,-0.1220703050494194,-0.1525878757238388,0.5493163466453552,60.0,459.0,1.0,Rest
35409.0078125,35335.42578125,35775.3984375,35682.23828125,35629.12890625,35689.5703125,35844.69140625,35968.78515625,0.666748046875,-0.090087890625,0.78125,-0.4577636420726776,0.0610351525247097,0.5798339247703552,60.0,460.0,1.0,Rest
35632.70703125,35559.30078125,35999.18359375,35905.75390625,35852.82421875,35913.0859375,36068.20703125,36192.5703125,0.664794921875,-0.094482421875,0.77783203125,-0.6103515028953552,0.2441406100988388,0.5187987685203552,60.0,461.0,1.0,Rest
35733.55859375,35660.2421875,36100.21484375,36006.875,35953.765625,36014.1171875,36169.50390625,36293.69140625,0.660400390625,-0.095703125,0.7783203125,-0.6408690810203552,0.3967284858226776,0.2441406100988388,60.0,462.0,1.0,Rest
35740.26171875,35667.0390625,36106.921875,36013.7578125,35960.65234375,36020.8203125,36176.390625,36300.6640625,0.6572265625,-0.0966796875,0.78271484375,-0.6103515028953552,0.3662109076976776,-0.3051757514476776,60.0,463.0,1.0,Rest
35816.2578125,35742.5859375,36182.37890625,36089.21875,36036.2890625,36096.55078125,36251.84765625,36376.03515625,0.657470703125,-0.093994140625,0.783447265625,-0.5187987685203552,0.2136230319738388,-0.8239745497703552,60.0,464.0,1.0,Rest
36028.33203125,35954.66015625,36395.16796875,36301.6484375,36248.71875,36308.98046875,36464.1015625,36588.734375,0.6630859375,-0.09423828125,0.783935546875,-0.5187987685203552,0.1220703050494194,-1.2512205839157104,60.0,465.0,1.0,Rest
