EEG 1,EEG 2,EEG 3,EEG 4,EEG 5,EEG 6,EEG 7,EEG 8,Accelerometer X,Accelerometer Y,Accelerometer Z,Gyroscope X,Gyroscope Y,Gyroscope Z,Battery Level,Counter,Validation Indicator,State
474022.75,24653.88671875,750000.0625,170605.0625,-274008.15625,208136.859375,332958.125,-18207.017578125,-0.080078125,0.957275390625,-0.121337890625,0.0,0.0,0.0,60.0,1.0,1.0,Rest
483717.25,750000.0625,750000.0625,17695.251953125,-348367.34375,750000.0625,452463.875,750000.0625,-0.087646484375,0.965087890625,-0.129150390625,0.0,0.0,0.0,60.0,2.0,1.0,Rest
485363.5,750000.0625,750000.0625,8342.296875,-207181.8125,750000.0625,193941.71875,750000.0625,-0.0908203125,0.96630859375,-0.133544921875,0.0,0.0,0.0,60.0,3.0,1.0,Rest
471339.21875,750000.0625,750000.0625,679771.8125,-23704.3828125,695076.0625,58141.71875,750000.0625,-0.09326171875,0.968017578125,-0.135986328125,0.0,0.0,0.0,60.0,4.0,1.0,Rest
374368.5,541385.5625,750000.0625,291570.75,150183.4375,354585.9375,43397.34375,750000.0625,-0.0947265625,0.9677734375,-0.137451171875,0.0,0.0,0.0,60.0,5.0,1.0,Rest
368042.78125,193715.34375,750000.0625,612291.9375,276640.9375,496349.21875,144573.234375,389811.65625,-0.093505859375,0.96923828125,-0.13623046875,-0.6103515028953552,-0.4577636420726776,-0.6713866591453552,60.0,6.0,1.0,Rest
483721.375,39391.46484375,750000.0625,676903.0625,334705.84375,386421.34375,395789.875,79467.6953125,-0.09521484375,0.968017578125,-0.139404296875,-2.746581792831421,-1.5563963651657104,-4.058837413787842,60.0,7.0,1.0,Rest
553747.625,768.0059814453125,750000.0625,730453.0,354325.6875,-311397.28125,396382.0,2461.0166015625,-0.09619140625,0.968994140625,-0.14013671875,-0.4882812201976776,0.2441406100988388,-1.7089842557907104,60.0,8.0,1.0,Rest
584246.0,72108.34375,750000.0625,750000.0625,379214.625,-663684.3125,443945.4375,0.0,-0.096923828125,0.96875,-0.140380859375,0.2746581733226776,0.7629393935203552,-0.8239745497703552,60.0,9.0,1.0,Rest
624407.625,89827.015625,750000.0625,750000.0625,445161.03125,-750000.125,640765.625,-66192.4609375,-0.095458984375,0.969482421875,-0.142333984375,0.3967284858226776,0.9155272841453552,-0.5798339247703552,60.0,10.0,1.0,Rest
750000.0625,-518038.71875,750000.0625,750000.0625,536467.5625,-469320.40625,750000.0625,-536349.6875,-0.096435546875,0.966796875,-0.141845703125,0.4882812201976776,0.9155272841453552,-0.3662109076976776,60.0,11.0,1.0,Rest
750000.0625,-673701.375,750000.0625,750000.0625,620578.0,-191983.609375,750000.0625,-745536.8125,-0.0947265625,0.968994140625,-0.1376953125,0.4577636420726776,0.8544921278953552,-0.2441406100988388,60.0,12.0,1.0,Rest
750000.0625,-750000.125,750000.0625,750000.0625,720134.0,-32674.228515625,750000.0625,-750000.125,-0.09619140625,0.9716796875,-0.13916015625,0.3967284858226776,0.7934569716453552,-0.1220703050494194,60.0,13.0,1.0,Rest
750000.0625,-733538.75,750000.0625,750000.0625,750000.0625,60139.96484375,750000.0625,-750000.125,-0.096435546875,0.973388671875,-0.138916015625,0.3967284858226776,0.6103515028953552,0.0,60.0,14.0,1.0,Rest
750000.0625,-533073.5,750000.0625,750000.0625,750000.0625,116691.0390625,750000.0625,-750000.125,-0.0986328125,0.974365234375,-0.13623046875,0.3356933295726776,0.4882812201976776,0.1831054538488388,60.0,15.0,1.0,Rest
750000.0625,-387234.5,750000.0625,750000.0625,750000.0625,150458.359375,750000.0625,-579337.75,-0.098388671875,0.9736328125,-0.1357421875,0.2136230319738388,0.3051757514476776,0.2136230319738388,60.0,16.0,1.0,Rest
750000.0625,-280743.90625,750000.0625,750000.0625,750000.0625,170020.15625,750000.0625,-433926.875,-0.09814453125,0.97265625,-0.1357421875,-0.03051757626235485,0.0915527269244194,0.3967284858226776,60.0,17.0,1.0,Rest
750000.0625,-201977.4375,750000.0625,750000.0625,750000.0625,178916.15625,750000.0625,-325014.3125,-0.097412109375,0.974365234375,-0.1376953125,-0.03051757626235485,0.0,0.5493163466453552,60.0,18.0,1.0,Rest
682824.75,-144650.75,750000.0625,750000.0625,750000.0625,183942.4375,750000.0625,-246580.796875,-0.095703125,0.973876953125,-0.139892578125,-0.0610351525247097,-0.1220703050494194,0.5798339247703552,60.0,19.0,1.0,Rest
641596.5,-107201.3828125,750000.0625,750000.0625,750000.0625,196195.75,749126.6875,-197024.375,-0.09375,0.977294921875,-0.139892578125,-0.1220703050494194,-0.2441406100988388,0.6408690810203552,60.0,20.0,1.0,Rest
618645.0,-77252.28125,750000.0625,750000.0625,750000.0625,209940.015625,718707.0625,-158073.953125,-0.091796875,0.978759765625,-0.136962890625,-0.1831054538488388,-0.3662109076976776,0.6103515028953552,60.0,21.0,1.0,Rest
598200.0625,-50690.2734375,750000.0625,750000.0625,750000.0625,221556.578125,691791.8125,-123427.0546875,-0.092041015625,0.9794921875,-0.134765625,-0.1525878757238388,-0.4882812201976776,0.5798339247703552,60.0,22.0,1.0,Rest
579322.9375,-27431.134765625,750000.0625,750000.0625,750000.0625,231316.96875,667270.5,-93029.75,-0.09423828125,0.980712890625,-0.133056640625,-0.3051757514476776,-0.6103515028953552,0.4577636420726776,60.0,23.0,1.0,Rest
561853.9375,-6989.390625,750000.0625,750000.0625,750000.0625,239541.953125,644798.75,-66312.4453125,-0.09375,0.9814453125,-0.132080078125,-0.4577636420726776,-0.7019042372703552,0.4577636420726776,60.0,24.0,1.0,Rest
545942.1875,11234.4345703125,750000.0625,750000.0625,750000.0625,246563.71875,624345.5,-42389.99609375,-0.090087890625,0.98095703125,-0.1328125,-0.6103515028953552,-0.7934569716453552,0.3967284858226776,60.0,25.0,1.0,Rest
531691.625,27873.341796875,750000.0625,750000.0625,734059.0625,252711.875,605996.75,-20335.9765625,-0.0830078125,0.976806640625,-0.131591796875,-0.8544921278953552,-0.7324218153953552,0.4882812201976776,60.0,26.0,1.0,Rest
518649.46875,42943.42578125,750000.0625,750000.0625,710673.125,258032.9375,589331.375,-205.90428161621094,-0.079345703125,0.972900390625,-0.1328125,-0.9460448622703552,-0.7019042372703552,0.4882812201976776,60.0,27.0,1.0,Rest
506357.25,56355.90234375,750000.0625,750000.0625,688958.6875,262524.46875,573810.0625,17649.654296875,-0.076171875,0.97119140625,-0.13623046875,-0.8850097060203552,-0.5187987685203552,0.5493163466453552,60.0,28.0,1.0,Rest
494743.46875,68347.4375,750000.0625,750000.0625,668569.5,266276.0625,559263.125,33400.125,-0.0732421875,0.970947265625,-0.13916015625,-0.9155272841453552,-0.3662109076976776,0.7019042372703552,60.0,29.0,1.0,Rest
484026.4375,79220.3046875,750000.0625,750000.0625,649684.25,269500.53125,545809.125,47659.1953125,-0.073974609375,0.97265625,-0.136474609375,-0.9460448622703552,-0.1831054538488388,0.8544921278953552,60.0,30.0,1.0,Rest
474409.4375,89318.5546875,750000.0625,750000.0625,632658.3125,272411.09375,533681.25,61127.10546875,-0.077392578125,0.97021484375,-0.132080078125,-1.0375975370407104,-0.0915527269244194,1.0070799589157104,60.0,31.0,1.0,Rest
465535.1875,98664.5390625,750000.0625,750000.0625,617151.1875,274963.9375,522555.03125,73663.3984375,-0.080078125,0.966552734375,-0.132080078125,-1.1596678495407104,0.0,1.0681151151657104,60.0,32.0,1.0,Rest
457012.375,107068.9765625,750000.0625,750000.0625,602491.375,277054.8125,512007.59375,84835.6953125,-0.0859375,0.963623046875,-0.13232421875,-1.2207030057907104,0.0915527269244194,1.1291502714157104,60.0,33.0,1.0,Rest
448837.625,114626.546875,750000.0625,750000.0625,588498.5625,278766.5,501965.5,94718.921875,-0.08837890625,0.958984375,-0.127685546875,-1.0375975370407104,-0.03051757626235485,0.9765624403953552,60.0,34.0,1.0,Rest
441248.3125,121602.34375,750000.0625,750000.0625,575383.9375,280249.59375,492595.1875,103788.71875,-0.0947265625,0.958984375,-0.1328125,-0.8544921278953552,-0.0915527269244194,0.7324218153953552,60.0,35.0,1.0,Rest
434431.9375,128226.9609375,750000.0625,750000.0625,563533.4375,281647.5625,484122.34375,112588.6953125,-0.0986328125,0.9609375,-0.135009765625,-0.4272460639476776,-0.1220703050494194,0.2746581733226776,60.0,36.0,1.0,Rest
428103.34375,134431.625,750000.0625,750000.0625,552691.875,282884.40625,476300.59375,120933.3125,-0.101806640625,0.961669921875,-0.13623046875,-0.1831054538488388,-0.3662109076976776,-0.2136230319738388,60.0,37.0,1.0,Rest
421937.9375,140084.296875,750000.0625,750000.0625,542313.4375,283869.9375,468787.0,128388.0703125,-0.1005859375,0.961669921875,-0.136474609375,0.0915527269244194,-0.6103515028953552,-0.6103515028953552,60.0,38.0,1.0,Rest
415942.75,145146.328125,750000.0625,750000.0625,532235.8125,284629.1875,461528.75,134951.25,-0.09716796875,0.965087890625,-0.137451171875,0.3051757514476776,-0.8544921278953552,-0.9155272841453552,60.0,39.0,1.0,Rest
410356.21875,149862.828125,750000.0625,750000.0625,522711.46875,285289.8125,454715.78125,141039.875,-0.093017578125,0.966552734375,-0.1376953125,0.6713866591453552,-1.0986326932907104,-1.1901854276657104,60.0,40.0,1.0,Rest
405367.0625,154465.21875,750000.0625,750000.0625,514115.375,285955.34375,448553.40625,147112.84375,-0.088134765625,0.96728515625,-0.136474609375,0.9460448622703552,-1.2512205839157104,-1.3732908964157104,60.0,41.0,1.0,Rest
400728.53125,158868.421875,750000.0625,750000.0625,506256.21875,286565.90625,442864.875,152984.5625,-0.085205078125,0.9697265625,-0.134521484375,1.0070799589157104,-1.4038084745407104,-1.3732908964157104,60.0,42.0,1.0,Rest
396135.875,162855.984375,750000.0625,750000.0625,498643.5625,287005.4375,437324.875,158207.0,-0.08251953125,0.97314453125,-0.13525390625,1.0986326932907104,-1.3732908964157104,-1.2512205839157104,60.0,43.0,1.0,Rest
391615.90625,166443.078125,750000.0625,750000.0625,491146.09375,287299.9375,431903.6875,162766.390625,-0.079345703125,0.974609375,-0.132568359375,0.9765624403953552,-1.2512205839157104,-1.0681151151657104,60.0,44.0,1.0,Rest
387389.71875,169797.984375,750000.0625,750000.0625,484007.90625,287543.3125,426780.28125,167022.078125,-0.0771484375,0.975830078125,-0.13037109375,0.8544921278953552,-1.1596678495407104,-0.6408690810203552,60.0,45.0,1.0,Rest
383662.53125,173171.40625,750000.0625,750000.0625,477617.8125,287849.71875,422187.28125,171419.203125,-0.0791015625,0.97509765625,-0.129150390625,0.6713866591453552,-0.9460448622703552,-0.2136230319738388,60.0,46.0,1.0,Rest
380187.0,176449.5,750000.0625,750000.0625,471783.03125,288142.6875,417947.0625,175747.65625,-0.081787109375,0.97412109375,-0.130615234375,0.4272460639476776,-0.7934569716453552,0.0610351525247097,60.0,47.0,1.0,Rest
376698.09375,179403.421875,750000.0625,750000.0625,466056.96875,288315.6875,413774.34375,179575.078125,-0.08544921875,0.973876953125,-0.13037109375,0.2441406100988388,-0.6103515028953552,0.2441406100988388,60.0,48.0,1.0,Rest
373207.0,182023.5,750000.0625,750000.0625,460312.5625,288370.59375,409626.40625,182864.28125,-0.087158203125,0.97509765625,-0.1337890625,0.0915527269244194,-0.4577636420726776,0.5798339247703552,60.0,49.0,1.0,Rest
369935.15625,184495.515625,750000.0625,750000.0625,454795.53125,288408.5,405687.65625,185948.015625,-0.089111328125,0.970458984375,-0.138671875,0.03051757626235485,-0.4882812201976776,0.7019042372703552,60.0,50.0,1.0,Rest
367106.0625,187059.4375,750000.0625,750000.0625,449898.96875,288558.25,402206.25,189263.21875,-0.090576171875,0.96923828125,-0.13720703125,0.0915527269244194,-0.5798339247703552,0.6408690810203552,60.0,51.0,1.0,Rest
364471.3125,189579.1875,750000.0625,750000.0625,445445.625,288719.65625,398997.15625,192588.1875,-0.090576171875,0.96826171875,-0.139892578125,0.2136230319738388,-0.6408690810203552,0.7019042372703552,60.0,52.0,1.0,Rest
361768.46875,191835.734375,750000.0625,750000.0625,441013.4375,288779.625,395781.375,195493.90625,-0.09228515625,0.96826171875,-0.13671875,0.4882812201976776,-0.7324218153953552,0.6713866591453552,60.0,53.0,1.0,Rest
359029.84375,193809.484375,750000.0625,750000.0625,436493.1875,288745.3125,392528.75,197936.6875,-0.09228515625,0.968505859375,-0.134765625,0.5798339247703552,-0.7629393935203552,0.5493163466453552,60.0,54.0,1.0,Rest
356474.84375,195697.046875,750000.0625,750000.0625,432142.21875,288713.75,389439.03125,200246.0625,-0.091552734375,0.970703125,-0.1337890625,0.7324218153953552,-0.8544921278953552,0.4272460639476776,60.0,55.0,1.0,Rest
354292.5,197706.203125,750000.0625,750000.0625,428343.03125,288797.15625,386747.78125,202828.140625,-0.0888671875,0.97216796875,-0.13427734375,0.8544921278953552,-0.9460448622703552,0.2441406100988388,60.0,56.0,1.0,Rest
352264.75,199704.359375,750000.0625,750000.0625,424924.65625,288893.28125,384279.15625,205468.59375,-0.087890625,0.97216796875,-0.13232421875,0.8239745497703552,-1.0070799589157104,0.3356933295726776,60.0,57.0,1.0,Rest
350150.28125,201502.421875,750000.0625,750000.0625,421485.78125,288909.71875,381774.53125,207754.921875,-0.08349609375,0.971435546875,-0.1318359375,0.7324218153953552,-0.9765624403953552,0.4272460639476776,60.0,58.0,1.0,Rest
347968.5,203080.453125,750000.0625,750000.0625,417925.78125,288852.59375,379212.5625,209644.078125,-0.083251953125,0.9697265625,-0.134765625,0.5798339247703552,-0.9765624403953552,0.5187987685203552,60.0,59.0,1.0,Rest
345926.15625,204565.59375,750000.0625,750000.0625,414461.625,288800.75,376767.09375,211432.40625,-0.081787109375,0.97265625,-0.134033203125,0.5493163466453552,-0.8850097060203552,0.6103515028953552,60.0,60.0,1.0,Rest
344219.75,206159.890625,750000.0625,750000.0625,411462.46875,288849.71875,374661.3125,213506.640625,-0.083251953125,0.97216796875,-0.135498046875,0.3662109076976776,-0.8239745497703552,0.7019042372703552,60.0,61.0,1.0,Rest
342656.375,207821.796875,750000.0625,750000.0625,408793.5625,288932.875,372754.53125,215679.140625,-0.08544921875,0.971923828125,-0.13623046875,0.3662109076976776,-0.7629393935203552,0.7324218153953552,60.0,62.0,1.0,Rest
340977.9375,209290.484375,750000.0625,750000.0625,406045.46875,288935.28125,370775.40625,217526.5625,-0.08447265625,0.9716796875,-0.13671875,0.1525878757238388,-0.6713866591453552,0.5798339247703552,60.0,63.0,1.0,Rest
339215.375,210549.953125,750000.0625,750000.0625,403132.78125,288874.3125,368718.15625,219016.53125,-0.083984375,0.971923828125,-0.1357421875,0.2746581733226776,-0.7019042372703552,0.4272460639476776,60.0,64.0,1.0,Rest
337570.90625,211730.9375,750000.0625,750000.0625,400276.3125,288822.0,366746.1875,220422.90625,-0.08251953125,0.974609375,-0.13916015625,0.1525878757238388,-0.7324218153953552,0.2136230319738388,60.0,65.0,1.0,Rest
336240.25,213049.953125,750000.0625,750000.0625,397852.21875,288873.25,365078.84375,222127.53125,-0.082275390625,0.974365234375,-0.138671875,0.2441406100988388,-0.6103515028953552,0.0,60.0,66.0,1.0,Rest
335031.125,214451.40625,750000.0625,750000.0625,395744.4375,288973.46875,363595.21875,223958.671875,-0.0810546875,0.97412109375,-0.135498046875,0.2441406100988388,-0.5493163466453552,-0.1220703050494194,60.0,67.0,1.0,Rest
333699.125,215713.5625,750000.0625,750000.0625,393551.90625,289003.6875,362029.6875,225496.125,-0.081787109375,0.973388671875,-0.13623046875,0.03051757626235485,-0.6103515028953552,-0.0915527269244194,60.0,68.0,1.0,Rest
332259.0625,216784.484375,750000.0625,750000.0625,391180.84375,288958.90625,360356.0,226694.0,-0.08056640625,0.974609375,-0.13623046875,-0.03051757626235485,-0.5187987685203552,-0.0610351525247097,60.0,69.0,1.0,Rest
330913.21875,217814.546875,750000.0625,750000.0625,388853.40625,288914.90625,358747.75,227828.921875,-0.079833984375,0.9716796875,-0.136474609375,-0.1220703050494194,-0.4272460639476776,0.03051757626235485,60.0,70.0,1.0,Rest
329867.59375,219017.6875,750000.0625,750000.0625,386927.125,288980.875,357430.0625,229279.5625,-0.08056640625,0.97119140625,-0.136962890625,-0.2441406100988388,-0.3051757514476776,0.1525878757238388,60.0,71.0,1.0,Rest
328935.96875,220275.5625,750000.0625,750000.0625,385281.78125,289096.65625,356276.625,230871.53125,-0.0810546875,0.97119140625,-0.134765625,-0.3051757514476776,-0.3356933295726776,0.0915527269244194,60.0,72.0,1.0,Rest
327858.25,221354.796875,750000.0625,750000.0625,383510.53125,289129.03125,355011.96875,232174.375,-0.0810546875,0.970458984375,-0.136962890625,-0.3662109076976776,-0.3051757514476776,0.1525878757238388,60.0,73.0,1.0,Rest
326676.21875,222265.046875,750000.0625,750000.0625,381538.03125,289099.875,353636.25,233153.296875,-0.082763671875,0.970703125,-0.138427734375,-0.1831054538488388,-0.2746581733226776,0.0915527269244194,60.0,74.0,1.0,Rest
325576.0625,223147.046875,750000.0625,750000.0625,379576.625,289081.90625,352315.8125,234086.515625,-0.08544921875,0.970703125,-0.1376953125,-0.1831054538488388,-0.1831054538488388,0.0,60.0,75.0,1.0,Rest
324762.0,224193.734375,750000.0625,750000.0625,377992.34375,289170.625,351270.1875,235341.625,-0.0859375,0.96875,-0.137939453125,-0.2746581733226776,-0.1831054538488388,-0.0610351525247097,60.0,76.0,1.0,Rest
324041.5625,225289.859375,750000.0625,750000.0625,376659.1875,289297.9375,350369.0625,236734.671875,-0.0859375,0.9677734375,-0.1376953125,-0.1220703050494194,-0.2136230319738388,-0.2136230319738388,60.0,77.0,1.0,Rest
323179.25,226241.15625,750000.0625,750000.0625,375205.59375,289356.125,349362.53125,237867.1875,-0.08740234375,0.967041015625,-0.136962890625,-0.1220703050494194,-0.2136230319738388,-0.2746581733226776,60.0,78.0,1.0,Rest
322199.0625,227013.359375,750000.0625,750000.0625,373534.0625,289345.84375,348225.25,238686.15625,-0.08740234375,0.96875,-0.136962890625,-0.0915527269244194,-0.3356933295726776,-0.3051757514476776,60.0,79.0,1.0,Rest
321295.78125,227764.5625,750000.0625,750000.0625,371879.3125,289354.4375,347138.0625,239470.609375,-0.0888671875,0.968994140625,-0.137451171875,0.0,-0.4882812201976776,-0.4272460639476776,60.0,80.0,1.0,Rest
320656.4375,228675.4375,750000.0625,750000.0625,370581.125,289460.75,346300.5,240572.1875,-0.090576171875,0.969970703125,-0.13623046875,-0.0610351525247097,-0.5187987685203552,-0.4272460639476776,60.0,81.0,1.0,Rest
320107.9375,229658.640625,750000.0625,750000.0625,369528.28125,289606.46875,345593.40625,241818.171875,-0.0888671875,0.970458984375,-0.1318359375,-0.0610351525247097,-0.6408690810203552,-0.3967284858226776,60.0,82.0,1.0,Rest
319418.78125,230494.859375,750000.0625,750000.0625,368350.78125,289688.375,344777.8125,242815.59375,-0.089111328125,0.970703125,-0.134521484375,-0.1220703050494194,-0.7629393935203552,-0.4272460639476776,60.0,83.0,1.0,Rest
318601.96875,231175.4375,749213.8125,748604.1875,366953.34375,289702.03125,343826.96875,243504.390625,-0.08935546875,0.97216796875,-0.136474609375,0.0915527269244194,-0.7934569716453552,-0.4577636420726776,60.0,84.0,1.0,Rest
317845.40625,231831.859375,747737.5,746594.1875,365547.40625,289726.0,342910.5625,244162.25,-0.087646484375,0.974365234375,-0.1376953125,0.0610351525247097,-0.8850097060203552,-0.3967284858226776,60.0,85.0,1.0,Rest
317351.96875,232655.921875,746347.5,745127.875,364482.59375,289851.0,342238.40625,245140.4375,-0.0869140625,0.973388671875,-0.137451171875,0.0,-0.8850097060203552,-0.4272460639476776,60.0,86.0,1.0,Rest
316938.0,233554.28125,745023.0,744008.9375,363647.15625,290010.40625,341690.6875,246263.125,-0.085693359375,0.975830078125,-0.134765625,-0.03051757626235485,-0.9460448622703552,-0.4272460639476776,60.0,87.0,1.0,Rest
316383.875,234318.796875,743743.5,742577.0,362683.0,290118.15625,341040.34375,247162.109375,-0.08544921875,0.9755859375,-0.13623046875,-0.1525878757238388,-0.9155272841453552,-0.3356933295726776,60.0,88.0,1.0,Rest
315692.75,234920.6875,742500.375,740680.1875,361476.53125,290150.0625,340241.03125,247753.8125,-0.08447265625,0.974853515625,-0.135009765625,-0.2136230319738388,-0.9155272841453552,-0.2441406100988388,60.0,89.0,1.0,Rest
315055.90625,235502.109375,741308.6875,738777.6875,360247.03125,290183.25,339464.4375,248304.5625,-0.084716796875,0.9755859375,-0.135986328125,-0.3967284858226776,-0.9155272841453552,-0.03051757626235485,60.0,90.0,1.0,Rest
314676.8125,236260.09375,740188.25,737571.0625,359353.65625,290320.46875,338928.5625,249187.90625,-0.08349609375,0.9755859375,-0.134521484375,-0.4882812201976776,-0.9765624403953552,0.0610351525247097,60.0,91.0,1.0,Rest
314372.28125,237085.859375,739117.75,736723.75,358681.0625,290497.78125,338512.4375,250225.640625,-0.085205078125,0.974365234375,-0.137451171875,-0.7324218153953552,-0.9460448622703552,0.2441406100988388,60.0,92.0,1.0,Rest
313917.40625,237790.921875,738080.1875,735484.375,357871.28125,290616.59375,337985.46875,251035.046875,-0.085205078125,0.97021484375,-0.132568359375,-0.9155272841453552,-0.8544921278953552,0.2746581733226776,60.0,93.0,1.0,Rest
313321.6875,238339.4375,737067.9375,733722.25,356821.46875,290657.53125,337302.3125,251539.84375,-0.08740234375,0.967041015625,-0.135009765625,-0.9460448622703552,-0.8544921278953552,0.3967284858226776,60.0,94.0,1.0,Rest
312786.65625,238869.796875,736099.375,731974.625,355756.5625,290712.4375,336646.53125,252020.765625,-0.086181640625,0.966552734375,-0.136474609375,-0.9155272841453552,-0.8239745497703552,0.4577636420726776,60.0,95.0,1.0,Rest
312491.78125,239559.296875,735185.1875,730961.625,355013.9375,290863.34375,336218.4375,252822.921875,-0.08740234375,0.967529296875,-0.134765625,-0.9155272841453552,-0.8239745497703552,0.3051757514476776,60.0,96.0,1.0,Rest
312268.90625,240312.734375,734317.9375,730321.75,354495.03125,291045.03125,335899.96875,253776.890625,-0.086181640625,0.96875,-0.13623046875,-0.8239745497703552,-0.7629393935203552,0.3662109076976776,60.0,97.0,1.0,Rest
311887.40625,240929.828125,733471.75,729240.6875,353823.03125,291159.75,335457.9375,254495.0,-0.0849609375,0.96826171875,-0.134765625,-0.8239745497703552,-0.7934569716453552,0.3051757514476776,60.0,98.0,1.0,Rest
311377.25,241412.703125,732650.3125,727624.9375,352918.3125,291212.03125,334872.34375,254935.15625,-0.086669921875,0.966796875,-0.1337890625,-0.7934569716453552,-0.9155272841453552,0.2441406100988388,60.0,99.0,1.0,Rest
310922.09375,241891.3125,731861.6875,726040.5625,351986.15625,291281.96875,334312.28125,255356.265625,-0.082275390625,0.967041015625,-0.1337890625,-0.6408690810203552,-0.9460448622703552,0.1525878757238388,60.0,100.0,1.0,Rest
310697.5625,242519.203125,731119.625,725192.4375,351359.25,291434.65625,333967.71875,256083.40625,-0.0830078125,0.966064453125,-0.13525390625,-0.5798339247703552,-0.9460448622703552,-0.03051757626235485,60.0,101.0,1.0,Rest
310542.71875,243226.0625,730413.3125,724707.4375,350935.0,291624.28125,333731.5,256967.375,-0.0830078125,0.96630859375,-0.13427734375,-0.4272460639476776,-0.7934569716453552,-0.0610351525247097,60.0,102.0,1.0,Rest
310236.15625,243811.671875,729722.5625,723788.5,350362.09375,291753.21875,333373.59375,257628.625,-0.08251953125,0.96826171875,-0.131591796875,-0.3967284858226776,-0.7934569716453552,-0.2441406100988388,60.0,103.0,1.0,Rest
309791.09375,244259.34375,729046.25,722340.1875,349550.28125,291810.4375,332863.28125,258006.28125,-0.082763671875,0.96923828125,-0.133056640625,-0.5798339247703552,-0.7934569716453552,-0.3356933295726776,60.0,104.0,1.0,Rest
309395.53125,244697.4375,728400.5625,720932.5625,348713.0625,291880.96875,332374.125,258361.6875,-0.082763671875,0.97216796875,-0.13427734375,-0.5187987685203552,-0.7629393935203552,-0.2746581733226776,60.0,105.0,1.0,Rest
309227.5625,245291.1875,727795.125,720224.5625,348183.0625,292040.125,332102.875,259036.078125,-0.083251953125,0.97314453125,-0.133056640625,-0.5493163466453552,-0.8239745497703552,-0.1220703050494194,60.0,106.0,1.0,Rest
309131.71875,245964.953125,727222.5625,719866.6875,347869.4375,292235.5625,331943.0,259874.359375,-0.08154296875,0.972900390625,-0.13330078125,-0.6713866591453552,-0.6408690810203552,-0.0915527269244194,60.0,107.0,1.0,Rest
308873.0625,246505.0625,726658.0,719077.8125,347395.65625,292356.28125,331643.3125,260476.0625,-0.083251953125,0.97119140625,-0.13037109375,-0.7934569716453552,-0.5798339247703552,-0.03051757626235485,60.0,108.0,1.0,Rest
308487.0,246916.421875,726104.5625,717792.3125,346691.3125,292425.90625,331205.84375,260808.484375,-0.083251953125,0.970458984375,-0.12841796875,-0.8239745497703552,-0.6103515028953552,-0.03051757626235485,60.0,109.0,1.0,Rest
308139.375,247310.078125,725570.75,716524.875,345941.90625,292492.34375,330769.34375,261106.65625,-0.08251953125,0.968017578125,-0.13037109375,-0.8544921278953552,-0.5798339247703552,0.03051757626235485,60.0,110.0,1.0,Rest
308023.875,247871.203125,725076.4375,715938.5,345495.84375,292654.0,330549.0625,261728.03125,-0.082275390625,0.966064453125,-0.1318359375,-0.7629393935203552,-0.5493163466453552,-0.0915527269244194,60.0,111.0,1.0,Rest
307977.28125,248507.25,724611.5,715683.125,345255.78125,292854.0,330441.15625,262515.34375,-0.083984375,0.96484375,-0.131591796875,-0.5798339247703552,-0.5187987685203552,-0.2441406100988388,60.0,112.0,1.0,Rest
307764.125,249017.046875,724150.875,715010.6875,344851.75,292985.25,330201.0,263074.9375,-0.0830078125,0.96484375,-0.1328125,-0.3356933295726776,-0.4272460639476776,-0.2746581733226776,60.0,113.0,1.0,Rest
307406.40625,249379.234375,723691.6875,713834.75,344197.3125,293047.9375,329802.34375,263351.65625,-0.083251953125,0.96484375,-0.132568359375,-0.2746581733226776,-0.4882812201976776,-0.2746581733226776,60.0,114.0,1.0,Rest
307101.625,249730.0625,723255.375,712683.25,343508.59375,293121.40625,329416.28125,263607.625,-0.08349609375,0.96728515625,-0.132568359375,-0.1220703050494194,-0.4272460639476776,-0.3356933295726776,60.0,115.0,1.0,Rest
307029.46875,250237.0,722851.25,712189.0,343123.25,293288.53125,329247.03125,264184.84375,-0.08251953125,0.967041015625,-0.13037109375,-0.0610351525247097,-0.4882812201976776,-0.3356933295726776,60.0,116.0,1.0,Rest
307021.34375,250818.140625,722468.875,712016.0,342943.46875,293487.90625,329183.375,264922.90625,-0.08251953125,0.96630859375,-0.130126953125,-0.03051757626235485,-0.5493163466453552,-0.4577636420726776,60.0,117.0,1.0,Rest
306845.125,251282.796875,722090.9375,711434.625,342609.0,293620.84375,328988.28125,265445.40625,-0.082763671875,0.967529296875,-0.12744140625,0.0915527269244194,-0.4882812201976776,-0.3051757514476776,60.0,118.0,1.0,Rest
306530.75,251607.609375,721711.75,710359.5,342023.46875,293687.0,328639.875,265692.6875,-0.082275390625,0.97021484375,-0.12841796875,0.0,-0.4882812201976776,-0.1831054538488388,60.0,119.0,1.0,Rest
306249.3125,251919.453125,721345.8125,709291.8125,341393.21875,293748.53125,328293.59375,265907.375,-0.08349609375,0.970458984375,-0.128173828125,-0.03051757626235485,-0.4272460639476776,-0.0915527269244194,60.0,120.0,1.0,Rest
306196.125,252398.5,721015.0,708864.0625,341064.03125,293900.96875,328150.90625,266432.71875,-0.084716796875,0.972900390625,-0.128662109375,-0.1525878757238388,-0.5798339247703552,-0.1831054538488388,60.0,121.0,1.0,Rest
306219.90625,252967.3125,720706.4375,708765.875,340944.5,294103.1875,328126.9375,267140.8125,-0.0859375,0.9775390625,-0.130126953125,-0.4272460639476776,-0.4882812201976776,-0.1831054538488388,60.0,122.0,1.0,Rest
306082.125,253420.15625,720394.625,708265.375,340660.53125,294234.34375,327971.8125,267634.96875,-0.084228515625,0.97802734375,-0.13037109375,-0.4272460639476776,-0.4272460639476776,-0.3356933295726776,60.0,123.0,1.0,Rest
305791.1875,253711.359375,720079.875,707258.75,340117.65625,294287.71875,327649.5,267836.0625,-0.085693359375,0.979736328125,-0.132080078125,-0.5187987685203552,-0.4577636420726776,-0.3356933295726776,60.0,124.0,1.0,Rest
305536.5625,253977.4375,719776.8125,706254.1875,339531.25,294347.53125,327323.96875,268006.46875,-0.087890625,0.977294921875,-0.131591796875,-0.7324218153953552,-0.3967284858226776,-0.4882812201976776,60.0,125.0,1.0,Rest
305517.25,254417.671875,719504.375,705893.0,339249.25,294501.15625,327212.375,268498.8125,-0.086669921875,0.97705078125,-0.130859375,-0.8239745497703552,-0.4577636420726776,-0.3967284858226776,60.0,126.0,1.0,Rest
305566.15625,254949.734375,719249.5,705847.1875,339168.6875,294697.46875,327211.59375,269166.5,-0.085205078125,0.975341796875,-0.1298828125,-1.0986326932907104,-0.5187987685203552,-0.1831054538488388,60.0,127.0,1.0,Rest
305443.65625,255354.921875,718989.375,705396.125,338922.8125,294827.84375,327083.28125,269621.40625,-0.086669921875,0.97119140625,-0.12939453125,-1.2817381620407104,-0.5187987685203552,0.03051757626235485,60.0,128.0,1.0,Rest
305186.71875,255626.71875,718729.875,704465.75,338433.78125,294892.375,326802.625,269806.21875,-0.089111328125,0.96923828125,-0.130859375,-1.4038084745407104,-0.5187987685203552,0.1525878757238388,60.0,129.0,1.0,Rest
304966.6875,255894.234375,718480.75,703539.625,337900.1875,294957.9375,326519.9375,269965.09375,-0.089599609375,0.97021484375,-0.13427734375,-1.4038084745407104,-0.7019042372703552,0.03051757626235485,60.0,130.0,1.0,Rest
304963.71875,256337.6875,718257.25,703234.375,337654.78125,295110.0,326440.4375,270433.59375,-0.0908203125,0.973388671875,-0.137451171875,-1.3427733182907104,-0.8239745497703552,0.0,60.0,131.0,1.0,Rest
305032.40625,256861.703125,718050.1875,703245.25,337610.59375,295307.96875,326469.25,271078.3125,-0.09033203125,0.978271484375,-0.13916015625,-1.3427733182907104,-0.8850097060203552,-0.2746581733226776,60.0,132.0,1.0,Rest
304937.71875,257254.46875,717834.6875,702849.9375,337402.8125,295440.90625,326365.34375,271498.53125,-0.091552734375,0.97998046875,-0.13427734375,-1.4038084745407104,-1.0375975370407104,-0.6103515028953552,60.0,133.0,1.0,Rest
304696.125,257497.390625,717616.125,701963.1875,336949.6875,295511.71875,326107.0625,271649.0625,-0.088623046875,0.979736328125,-0.1357421875,-1.4953612089157104,-1.2207030057907104,-0.6408690810203552,60.0,134.0,1.0,Rest
304487.375,257716.34375,717404.375,701070.0,336448.03125,295575.46875,325843.9375,271767.1875,-0.085693359375,0.9765625,-0.130126953125,-1.6479490995407104,-1.3427733182907104,-0.6103515028953552,60.0,135.0,1.0,Rest
304506.59375,258102.671875,717219.75,700804.9375,336239.0,295733.1875,325790.8125,272208.59375,-0.083740234375,0.968994140625,-0.128662109375,-1.8005369901657104,-1.3427733182907104,-0.4577636420726776,60.0,136.0,1.0,Rest
304594.9375,258570.71875,717049.625,700850.0625,336232.03125,295930.125,325837.9375,272823.09375,-0.08154296875,0.961669921875,-0.127685546875,-1.8920897245407104,-1.3427733182907104,-0.3356933295726776,60.0,137.0,1.0,Rest
304518.03125,258936.75,716874.9375,700499.3125,336071.71875,296062.375,325753.71875,273226.84375,-0.082763671875,0.958251953125,-0.12451171875,-1.8310545682907104,-1.3732908964157104,-0.1220703050494194,60.0,138.0,1.0,Rest
304283.25,259164.640625,716686.8125,699644.3125,335634.78125,296105.09375,325486.5625,273333.6875,-0.083740234375,0.954833984375,-0.126708984375,-1.8310545682907104,-1.2817381620407104,-0.0610351525247097,60.0,139.0,1.0,Rest
304099.34375,259403.0,716509.6875,698800.875,335172.75,296177.625,325240.53125,273433.28125,-0.082763671875,0.948486328125,-0.128662109375,-1.5258787870407104,-1.1596678495407104,0.0,60.0,140.0,1.0,Rest
304136.4375,259803.453125,716360.9375,698586.375,335006.53125,296331.75,325207.875,273867.625,-0.083251953125,0.94482421875,-0.133544921875,-1.0070799589157104,-1.1596678495407104,0.0915527269244194,60.0,141.0,1.0,Rest
304223.15625,260274.09375,716220.9375,698665.6875,335016.46875,296507.09375,325270.75,274452.53125,-0.0830078125,0.9375,-0.13427734375,-0.5493163466453552,-1.0681151151657104,0.1525878757238388,60.0,142.0,1.0,Rest
304148.15625,260624.578125,716073.6875,698341.6875,334859.1875,296616.15625,325197.5,274817.75,-0.0830078125,0.93212890625,-0.13232421875,-0.0610351525247097,-0.9765624403953552,0.03051757626235485,60.0,143.0,1.0,Rest
303918.46875,260820.640625,715915.3125,697511.8125,334438.25,296645.3125,324943.25,274882.84375,-0.08154296875,0.927978515625,-0.130859375,0.6103515028953552,-0.9460448622703552,-0.0610351525247097,60.0,144.0,1.0,Rest
303740.46875,261026.28125,715769.25,696698.0,333994.90625,296713.96875,324717.84375,274962.78125,-0.07958984375,0.922119140625,-0.132080078125,1.5563963651657104,-0.7629393935203552,-0.0915527269244194,60.0,145.0,1.0,Rest
303787.125,261397.3125,715644.6875,696509.5625,333845.84375,296886.25,324708.28125,275372.96875,-0.0791015625,0.915283203125,-0.12646484375,2.502441167831421,-0.3356933295726776,-0.1525878757238388,60.0,146.0,1.0,Rest
303891.03125,261834.515625,715527.0,696621.8125,333877.0625,297073.84375,324781.5,275934.4375,-0.08056640625,0.906005859375,-0.125732421875,3.387450933456421,-0.0915527269244194,-0.03051757626235485,60.0,147.0,1.0,Rest
303838.09375,262159.5,715408.375,696342.8125,333759.03125,297214.90625,324730.375,276292.96875,-0.0791015625,0.897216796875,-0.119873046875,4.608153820037842,0.2136230319738388,0.2441406100988388,60.0,148.0,1.0,Rest
303622.625,262330.0,715275.875,695550.1875,333370.90625,297260.4375,324495.03125,276352.40625,-0.0771484375,0.888916015625,-0.121826171875,6.164550304412842,0.3967284858226776,0.6408690810203552,60.0,149.0,1.0,Rest
303460.8125,262513.21875,715152.0625,694765.0,332948.03125,297327.5625,324282.6875,276409.1875,-0.07763671875,0.88427734375,-0.12353515625,7.781981945037842,0.4882812201976776,1.1901854276657104,60.0,150.0,1.0,Rest
303515.34375,262863.78125,715046.75,694592.8125,332805.0625,297470.8125,324271.25,276786.40625,-0.07861328125,0.876953125,-0.1240234375,9.552000999450684,0.6103515028953552,1.5869139432907104,60.0,151.0,1.0,Rest
303515.34375,262863.78125,715046.75,694592.8125,332805.0625,297470.8125,324271.25,276786.40625,-0.07861328125,0.876953125,-0.1240234375,9.552000999450684,0.6103515028953552,1.5869139432907104,60.0,152.0,0.0,Rest
303515.34375,262863.78125,715046.75,694592.8125,332805.0625,297470.8125,324271.25,276786.40625,-0.07861328125,0.876953125,-0.1240234375,9.552000999450684,0.6103515028953552,1.5869139432907104,60.0,153.0,0.0,Rest
303515.34375,262863.78125,715046.75,694592.8125,332805.0625,297470.8125,324271.25,276786.40625,-0.07861328125,0.876953125,-0.1240234375,9.552000999450684,0.6103515028953552,1.5869139432907104,60.0,154.0,0.0,Rest
303515.34375,262863.78125,715046.75,694592.8125,332805.0625,297470.8125,324271.25,276786.40625,-0.07861328125,0.876953125,-0.1240234375,9.552000999450684,0.6103515028953552,1.5869139432907104,60.0,155.0,0.0,Rest
303515.34375,262863.78125,715046.75,694592.8125,332805.0625,297470.8125,324271.25,276786.40625,-0.07861328125,0.876953125,-0.1240234375,9.552000999450684,0.6103515028953552,1.5869139432907104,60.0,156.0,0.0,Rest
303515.34375,262863.78125,715046.75,694592.8125,332805.0625,297470.8125,324271.25,276786.40625,-0.07861328125,0.876953125,-0.1240234375,9.552000999450684,0.6103515028953552,1.5869139432907104,60.0,157.0,0.0,Rest
303515.34375,262863.78125,715046.75,694592.8125,332805.0625,297470.8125,324271.25,276786.40625,-0.07861328125,0.876953125,-0.1240234375,9.552000999450684,0.6103515028953552,1.5869139432907104,60.0,158.0,0.0,Rest
303515.34375,262863.78125,715046.75,694592.8125,332805.0625,297470.8125,324271.25,276786.40625,-0.07861328125,0.876953125,-0.1240234375,9.552000999450684,0.6103515028953552,1.5869139432907104,60.0,159.0,0.0,Rest
303515.34375,262863.78125,715046.75,694592.8125,332805.0625,297470.8125,324271.25,276786.40625,-0.07861328125,0.876953125,-0.1240234375,9.552000999450684,0.6103515028953552,1.5869139432907104,60.0,160.0,0.0,Rest
303515.34375,262863.78125,715046.75,694592.8125,332805.0625,297470.8125,324271.25,276786.40625,-0.07861328125,0.876953125,-0.1240234375,9.552000999450684,0.6103515028953552,1.5869139432907104,60.0,161.0,0.0,Rest
303515.34375,262863.78125,715046.75,694592.8125,332805.0625,297470.8125,324271.25,276786.40625,-0.07861328125,0.876953125,-0.1240234375,9.552000999450684,0.6103515028953552,1.5869139432907104,60.0,162.0,0.0,Rest
303515.34375,262863.78125,715046.75,694592.8125,332805.0625,297470.8125,324271.25,276786.40625,-0.07861328125,0.876953125,-0.1240234375,9.552000999450684,0.6103515028953552,1.5869139432907104,60.0,163.0,0.0,Rest
303515.34375,262863.78125,715046.75,694592.8125,332805.0625,297470.8125,324271.25,276786.40625,-0.07861328125,0.876953125,-0.1240234375,9.552000999450684,0.6103515028953552,1.5869139432907104,60.0,164.0,0.0,Rest
303515.34375,262863.78125,715046.75,694592.8125,332805.0625,297470.8125,324271.25,276786.40625,-0.07861328125,0.876953125,-0.1240234375,9.552000999450684,0.6103515028953552,1.5869139432907104,60.0,165.0,0.0,Rest
303515.34375,262863.78125,715046.75,694592.8125,332805.0625,297470.8125,324271.25,276786.40625,-0.07861328125,0.876953125,-0.1240234375,9.552000999450684,0.6103515028953552,1.5869139432907104,60.0,166.0,0.0,Rest
303515.34375,262863.78125,715046.75,694592.8125,332805.0625,297470.8125,324271.25,276786.40625,-0.07861328125,0.876953125,-0.1240234375,9.552000999450684,0.6103515028953552,1.5869139432907104,60.0,167.0,0.0,Rest
303515.34375,262863.78125,715046.75,694592.8125,332805.0625,297470.8125,324271.25,276786.40625,-0.07861328125,0.876953125,-0.1240234375,9.552000999450684,0.6103515028953552,1.5869139432907104,60.0,168.0,0.0,Rest
303515.34375,262863.78125,715046.75,694592.8125,332805.0625,297470.8125,324271.25,276786.40625,-0.07861328125,0.876953125,-0.1240234375,9.552000999450684,0.6103515028953552,1.5869139432907104,60.0,169.0,0.0,Rest
303515.34375,262863.78125,715046.75,694592.8125,332805.0625,297470.8125,324271.25,276786.40625,-0.07861328125,0.876953125,-0.1240234375,9.552000999450684,0.6103515028953552,1.5869139432907104,60.0,170.0,0.0,Rest
303515.34375,262863.78125,715046.75,694592.8125,332805.0625,297470.8125,324271.25,276786.40625,-0.07861328125,0.876953125,-0.1240234375,9.552000999450684,0.6103515028953552,1.5869139432907104,60.0,171.0,0.0,Rest
303515.34375,262863.78125,715046.75,694592.8125,332805.0625,297470.8125,324271.25,276786.40625,-0.07861328125,0.876953125,-0.1240234375,9.552000999450684,0.6103515028953552,1.5869139432907104,60.0,172.0,0.0,Rest
303515.34375,262863.78125,715046.75,694592.8125,332805.0625,297470.8125,324271.25,276786.40625,-0.07861328125,0.876953125,-0.1240234375,9.552000999450684,0.6103515028953552,1.5869139432907104,60.0,173.0,0.0,Rest
302662.40625,268708.03125,713272.75,687101.0625,329083.9375,299651.0,322952.59375,282095.84375,-0.06640625,1.082275390625,-0.161376953125,38.299556732177734,-0.8850097060203552,3.784179449081421,60.0,174.0,1.0,Rest
302517.09375,268807.53125,713184.625,686396.375,328744.03125,299678.71875,322767.625,282070.90625,-0.05908203125,1.0859375,-0.1630859375,35.797115325927734,-0.6408690810203552,4.272460460662842,60.0,175.0,1.0,Rest
302588.375,269070.59375,713142.8125,686325.375,328681.875,299788.125,322772.875,282363.25,-0.058837890625,1.088134765625,-0.168701171875,33.294673919677734,-0.3967284858226776,4.608153820037842,60.0,176.0,1.0,Rest
302732.5,269427.21875,713128.3125,686562.75,328817.34375,299942.625,322884.90625,282831.46875,-0.059326171875,1.084716796875,-0.17529296875,30.578611373901367,-0.1220703050494194,5.004882335662842,60.0,177.0,1.0,Rest
302710.0625,269685.0625,713077.4375,686373.4375,328787.125,300017.09375,322872.40625,283083.4375,-0.05859375,1.081787109375,-0.187255859375,27.832029342651367,0.1831054538488388,4.974364757537842,60.0,178.0,1.0,Rest
302540.09375,269805.3125,713022.5,685731.0625,328505.46875,300028.46875,322707.4375,283063.65625,-0.0595703125,1.07958984375,-0.200439453125,25.177000045776367,0.3051757514476776,4.608153820037842,60.0,179.0,1.0,Rest
302395.96875,269903.9375,712974.375,685131.875,328153.9375,300038.46875,322532.5625,283011.8125,-0.060546875,1.079345703125,-0.212158203125,22.491453170776367,0.4882812201976776,4.180907726287842,60.0,180.0,1.0,Rest
302475.09375,270146.5,712935.75,685118.0,328076.5,300146.3125,322549.625,283275.75,-0.05810546875,1.07763671875,-0.22021484375,19.866941452026367,0.7629393935203552,3.540038824081421,60.0,181.0,1.0,Rest
302626.0,270471.6875,712906.0,685406.8125,328173.5,300295.0625,322669.53125,283710.25,-0.05419921875,1.0751953125,-0.223876953125,17.425535202026367,0.9460448622703552,2.838134527206421,60.0,182.0,1.0,Rest
302608.65625,270687.0625,712867.1875,685295.5625,328087.0625,300380.0,322663.53125,283947.28125,-0.051025390625,1.072509765625,-0.227783203125,14.953612327575684,1.3122557401657104,2.197265386581421,60.0,183.0,1.0,Rest
302437.28125,270767.15625,712813.8125,684682.6875,327741.21875,300394.75,322497.6875,283919.75,-0.052490234375,1.06689453125,-0.22900390625,12.573241233825684,1.7089842557907104,1.8615721464157104,60.0,184.0,1.0,Rest
302301.1875,270844.40625,712763.75,684046.125,327373.9375,300416.75,322328.625,283871.375,-0.0546875,1.06103515625,-0.226806640625,10.009764671325684,2.166747808456421,1.4648436307907104,60.0,185.0,1.0,Rest
302301.1875,270844.40625,712763.75,684046.125,327373.9375,300416.75,322328.625,283871.375,-0.0546875,1.06103515625,-0.226806640625,10.009764671325684,2.166747808456421,1.4648436307907104,60.0,186.0,0.0,Rest
302301.1875,270844.40625,712763.75,684046.125,327373.9375,300416.75,322328.625,283871.375,-0.0546875,1.06103515625,-0.226806640625,10.009764671325684,2.166747808456421,1.4648436307907104,60.0,187.0,0.0,Rest
302301.1875,270844.40625,712763.75,684046.125,327373.9375,300416.75,322328.625,283871.375,-0.0546875,1.06103515625,-0.226806640625,10.009764671325684,2.166747808456421,1.4648436307907104,60.0,188.0,0.0,Rest
302301.1875,270844.40625,712763.75,684046.125,327373.9375,300416.75,322328.625,283871.375,-0.0546875,1.06103515625,-0.226806640625,10.009764671325684,2.166747808456421,1.4648436307907104,60.0,189.0,0.0,Rest
302301.1875,270844.40625,712763.75,684046.125,327373.9375,300416.75,322328.625,283871.375,-0.0546875,1.06103515625,-0.226806640625,10.009764671325684,2.166747808456421,1.4648436307907104,60.0,190.0,0.0,Rest
302301.1875,270844.40625,712763.75,684046.125,327373.9375,300416.75,322328.625,283871.375,-0.0546875,1.06103515625,-0.226806640625,10.009764671325684,2.166747808456421,1.4648436307907104,60.0,191.0,0.0,Rest
302301.1875,270844.40625,712763.75,684046.125,327373.9375,300416.75,322328.625,283871.375,-0.0546875,1.06103515625,-0.226806640625,10.009764671325684,2.166747808456421,1.4648436307907104,60.0,192.0,0.0,Rest
302301.1875,270844.40625,712763.75,684046.125,327373.9375,300416.75,322328.625,283871.375,-0.0546875,1.06103515625,-0.226806640625,10.009764671325684,2.166747808456421,1.4648436307907104,60.0,193.0,0.0,Rest
302301.1875,270844.40625,712763.75,684046.125,327373.9375,300416.75,322328.625,283871.375,-0.0546875,1.06103515625,-0.226806640625,10.009764671325684,2.166747808456421,1.4648436307907104,60.0,194.0,0.0,Rest
302301.1875,270844.40625,712763.75,684046.125,327373.9375,300416.75,322328.625,283871.375,-0.0546875,1.06103515625,-0.226806640625,10.009764671325684,2.166747808456421,1.4648436307907104,60.0,195.0,0.0,Rest
302301.1875,270844.40625,712763.75,684046.125,327373.9375,300416.75,322328.625,283871.375,-0.0546875,1.06103515625,-0.226806640625,10.009764671325684,2.166747808456421,1.4648436307907104,60.0,196.0,0.0,Rest
302301.1875,270844.40625,712763.75,684046.125,327373.9375,300416.75,322328.625,283871.375,-0.0546875,1.06103515625,-0.226806640625,10.009764671325684,2.166747808456421,1.4648436307907104,60.0,197.0,0.0,Rest
302301.1875,270844.40625,712763.75,684046.125,327373.9375,300416.75,322328.625,283871.375,-0.0546875,1.06103515625,-0.226806640625,10.009764671325684,2.166747808456421,1.4648436307907104,60.0,198.0,0.0,Rest
302301.1875,270844.40625,712763.75,684046.125,327373.9375,300416.75,322328.625,283871.375,-0.0546875,1.06103515625,-0.226806640625,10.009764671325684,2.166747808456421,1.4648436307907104,60.0,199.0,0.0,Rest
302301.1875,270844.40625,712763.75,684046.125,327373.9375,300416.75,322328.625,283871.375,-0.0546875,1.06103515625,-0.226806640625,10.009764671325684,2.166747808456421,1.4648436307907104,60.0,200.0,0.0,Rest
302301.1875,270844.40625,712763.75,684046.125,327373.9375,300416.75,322328.625,283871.375,-0.0546875,1.06103515625,-0.226806640625,10.009764671325684,2.166747808456421,1.4648436307907104,60.0,201.0,0.0,Rest
302301.1875,270844.40625,712763.75,684046.125,327373.9375,300416.75,322328.625,283871.375,-0.0546875,1.06103515625,-0.226806640625,10.009764671325684,2.166747808456421,1.4648436307907104,60.0,202.0,0.0,Rest
302301.1875,270844.40625,712763.75,684046.125,327373.9375,300416.75,322328.625,283871.375,-0.0546875,1.06103515625,-0.226806640625,10.009764671325684,2.166747808456421,1.4648436307907104,60.0,203.0,0.0,Rest
302301.1875,270844.40625,712763.75,684046.125,327373.9375,300416.75,322328.625,283871.375,-0.0546875,1.06103515625,-0.226806640625,10.009764671325684,2.166747808456421,1.4648436307907104,60.0,204.0,0.0,Rest
302301.1875,270844.40625,712763.75,684046.125,327373.9375,300416.75,322328.625,283871.375,-0.0546875,1.06103515625,-0.226806640625,10.009764671325684,2.166747808456421,1.4648436307907104,60.0,205.0,0.0,Rest
302301.1875,270844.40625,712763.75,684046.125,327373.9375,300416.75,322328.625,283871.375,-0.0546875,1.06103515625,-0.226806640625,10.009764671325684,2.166747808456421,1.4648436307907104,60.0,206.0,0.0,Rest
302306.375,274982.25,712159.4375,679828.875,325831.0625,301959.375,321877.65625,287553.34375,-0.10693359375,0.880859375,-0.203369140625,-18.127439498901367,0.9155272841453552,-2.105712652206421,60.0,207.0,1.0,Rest
302298.0625,275169.46875,712139.875,679714.4375,325829.71875,302029.75,321887.9375,287745.90625,-0.105712890625,0.8857421875,-0.198974609375,-16.937253952026367,0.3356933295726776,-2.319335699081421,60.0,208.0,1.0,Rest
302131.59375,275213.75,712105.9375,679099.75,325565.25,302026.875,321737.375,287667.0625,-0.104248046875,0.89013671875,-0.197509765625,-15.594481468200684,-0.3356933295726776,-2.532958745956421,60.0,209.0,1.0,Rest
302006.15625,275253.34375,712076.875,678472.9375,325253.3125,302039.125,321593.59375,287574.34375,-0.103515625,0.8984375,-0.194091796875,-14.190672874450684,-0.9155272841453552,-2.624511480331421,60.0,210.0,1.0,Rest
302099.9375,275454.96875,712067.4375,678453.5,325224.15625,302142.5,321647.96875,287794.09375,-0.101318359375,0.90771484375,-0.18701171875,-13.183592796325684,-1.4953612089157104,-2.593993902206421,60.0,211.0,1.0,Rest
302254.4375,275729.0625,712061.8125,678740.0625,325391.25,302278.21875,321790.40625,288181.15625,-0.100830078125,0.91455078125,-0.178466796875,-12.359618186950684,-1.8920897245407104,-2.471923589706421,60.0,212.0,1.0,Rest
302238.5,275887.6875,712043.8125,678628.875,325414.5,302346.78125,321801.375,288364.6875,-0.098876953125,0.9208984375,-0.173095703125,-11.840819358825684,-2.349853277206421,-2.258300542831421,60.0,213.0,1.0,Rest
302078.125,275921.65625,712014.0625,678024.0,325197.4375,302347.3125,321658.4375,288286.375,-0.095458984375,0.927734375,-0.17041015625,-11.383055686950684,-2.624511480331421,-1.8920897245407104,60.0,214.0,1.0,Rest
301949.28125,275936.0625,711986.4375,677390.75,324918.21875,302346.34375,321503.5625,288178.71875,-0.0927734375,0.935546875,-0.169189453125,-11.108397483825684,-2.899169683456421,-1.5869139432907104,60.0,215.0,1.0,Rest
302048.875,276121.40625,711976.875,677374.0,324910.78125,302437.53125,321551.3125,288388.375,-0.091552734375,0.93994140625,-0.168212890625,-10.742186546325684,-3.112792730331421,-1.2207030057907104,60.0,216.0,1.0,Rest
302210.625,276398.90625,711973.625,677667.375,325084.5,302557.0625,321692.5,288773.71875,-0.094482421875,0.94580078125,-0.1669921875,-10.437010765075684,-3.417968511581421,-1.0070799589157104,60.0,217.0,1.0,Rest
302204.1875,276568.53125,711956.75,677561.0625,325088.0,302615.0,321701.15625,288953.09375,-0.095458984375,0.952392578125,-0.16943359375,-10.192870140075684,-3.692626714706421,-0.8239745497703552,60.0,218.0,1.0,Rest
302054.96875,276615.1875,711931.375,676962.375,324848.90625,302609.90625,321561.0625,288868.40625,-0.09521484375,0.955810546875,-0.16845703125,-9.826659202575684,-4.119872570037842,-0.7324218153953552,60.0,219.0,1.0,Rest
301945.96875,276648.53125,711907.9375,676344.4375,324549.03125,302610.71875,321420.6875,288762.375,-0.093994140625,0.962158203125,-0.172607421875,-9.674071311950684,-4.425048351287842,-0.7324218153953552,60.0,220.0,1.0,Rest
302031.34375,276834.0625,711897.4375,676319.8125,324510.15625,302687.25,321464.78125,288960.59375,-0.090087890625,0.966552734375,-0.166748046875,-9.552000999450684,-4.547118663787842,-0.9155272841453552,60.0,221.0,1.0,Rest
302180.9375,277098.4375,711892.125,676605.1875,324656.34375,302805.25,321606.3125,289329.3125,-0.0859375,0.972412109375,-0.16552734375,-9.460448265075684,-4.730224132537842,-1.1291502714157104,60.0,222.0,1.0,Rest
302182.1875,277259.09375,711877.875,676505.0,324652.3125,302870.71875,321624.71875,289499.53125,-0.085205078125,0.974853515625,-0.165771484375,-9.582518577575684,-4.882812023162842,-1.2512205839157104,60.0,223.0,1.0,Rest
302042.34375,277294.40625,711856.25,675923.75,324414.84375,302878.21875,321489.8125,289409.78125,-0.08349609375,0.97607421875,-0.162841796875,-9.613036155700684,-5.035399913787842,-1.3427733182907104,60.0,224.0,1.0,Rest
301923.8125,277312.84375,711834.875,675313.375,324131.25,302883.5,321340.5,289290.40625,-0.08349609375,0.975830078125,-0.156005859375,-9.918211936950684,-5.218505382537842,-1.3122557401657104,60.0,225.0,1.0,Rest
302015.25,277484.21875,711827.25,675297.5625,324129.0,302966.8125,321379.9375,289483.1875,-0.08056640625,0.97412109375,-0.15234375,-10.070799827575684,-5.249022960662842,-1.1596678495407104,60.0,226.0,1.0,Rest
302175.125,277756.1875,711827.0,675598.5625,324338.84375,303093.96875,321524.84375,289856.90625,-0.076904296875,0.9716796875,-0.151123046875,-10.345458030700684,-5.187987804412842,-1.0681151151657104,60.0,227.0,1.0,Rest
302169.03125,277913.375,711813.625,675497.75,324386.21875,303150.8125,321530.5,290018.28125,-0.0771484375,0.9658203125,-0.1552734375,-10.620116233825684,-5.035399913787842,-0.9155272841453552,60.0,228.0,1.0,Rest
302021.6875,277935.8125,711787.125,674906.8125,324169.875,303139.75,321381.71875,289918.21875,-0.0751953125,0.96044921875,-0.1591796875,-10.498045921325684,-4.913329601287842,-1.0681151151657104,60.0,229.0,1.0,Rest
301905.75,277946.5625,711763.5,674297.0,323889.21875,303132.0625,321229.71875,289793.40625,-0.076171875,0.95849609375,-0.161865234375,-10.223387718200684,-4.730224132537842,-1.0375975370407104,60.0,230.0,1.0,Rest
302017.40625,278136.0,711760.3125,674296.75,323887.625,303222.25,321280.5,289990.46875,-0.076171875,0.959228515625,-0.16650390625,-9.613036155700684,-4.577636241912842,-1.0681151151657104,60.0,231.0,1.0,Rest
302192.28125,278417.09375,711764.8125,674612.6875,324076.875,303348.59375,321438.125,290363.84375,-0.07763671875,0.961669921875,-0.1708984375,-8.941649436950684,-4.333495616912842,-1.2512205839157104,60.0,232.0,1.0,Rest
302190.78125,278574.8125,711754.9375,674520.0,324090.75,303397.9375,321454.40625,290521.1875,-0.07763671875,0.964599609375,-0.16552734375,-8.575438499450684,-4.119872570037842,-1.4648436307907104,60.0,233.0,1.0,Rest
302049.78125,278599.3125,711735.75,673945.6875,323860.34375,303397.6875,321323.6875,290422.75,-0.076416015625,0.9697265625,-0.16552734375,-8.239745140075684,-3.906249761581421,-1.6479490995407104,60.0,234.0,1.0,Rest
301938.5625,278602.53125,711714.1875,673342.5625,323558.875,303393.28125,321182.78125,290292.3125,-0.07666015625,0.973876953125,-0.162841796875,-7.965087413787842,-3.814697027206421,-1.8615721464157104,60.0,235.0,1.0,Rest
302032.0625,278757.375,711705.5,673329.875,323512.5625,303465.71875,321225.78125,290461.90625,-0.0751953125,0.9736328125,-0.160400390625,-7.720946788787842,-3.784179449081421,-1.8005369901657104,60.0,236.0,1.0,Rest
302194.53125,279012.28125,711708.0,673641.125,323680.09375,303580.4375,321374.1875,290817.5625,-0.07470703125,0.9736328125,-0.1591796875,-7.629394054412842,-3.692626714706421,-1.6784666776657104,60.0,237.0,1.0,Rest
302194.71875,279159.09375,711700.5,673556.625,323711.375,303629.40625,321388.96875,290975.28125,-0.074462890625,0.97900390625,-0.157470703125,-7.537841320037842,-3.173827886581421,-1.5869139432907104,60.0,238.0,1.0,Rest
302040.375,279170.1875,711678.75,672972.8125,323502.28125,303609.65625,321237.9375,290863.875,-0.07568359375,0.984130859375,-0.155517578125,-7.446288585662842,-2.716064214706421,-1.5258787870407104,60.0,239.0,1.0,Rest
301920.59375,279173.65625,711657.9375,672373.4375,323237.4375,303600.90625,321090.0625,290737.46875,-0.075927734375,0.9873046875,-0.15625,-7.507323741912842,-2.532958745956421,-1.5563963651657104,60.0,240.0,1.0,Rest
302020.1875,279344.96875,711655.6875,672379.5625,323242.625,303673.21875,321132.96875,290916.8125,-0.076416015625,0.98779296875,-0.156982421875,-7.629394054412842,-2.349853277206421,-1.6479490995407104,60.0,241.0,1.0,Rest
302184.96875,279598.0,711659.375,672698.9375,323442.625,303785.0625,321278.53125,291266.40625,-0.078857421875,0.986328125,-0.1572265625,-7.751464366912842,-1.8920897245407104,-1.7089842557907104,60.0,242.0,1.0,Rest
302182.46875,279735.21875,711650.3125,672618.9375,323484.21875,303832.71875,321293.65625,291418.46875,-0.0810546875,0.98681640625,-0.154541015625,-7.659911632537842,-1.6784666776657104,-1.6479490995407104,60.0,243.0,1.0,Rest
302034.9375,279739.34375,711628.6875,672046.4375,323273.90625,303816.1875,321151.75,291303.9375,-0.0830078125,0.985595703125,-0.15380859375,-7.537841320037842,-1.4953612089157104,-1.6479490995407104,60.0,244.0,1.0,Rest
301915.9375,279732.53125,711607.3125,671448.5,323002.3125,303806.96875,321010.21875,291164.03125,-0.085693359375,0.981689453125,-0.150634765625,-7.659911632537842,-1.3122557401657104,-1.7395018339157104,60.0,245.0,1.0,Rest
302013.03125,279892.75,711604.375,671454.9375,322997.84375,303886.03125,321063.4375,291333.8125,-0.085693359375,0.978515625,-0.149658203125,-7.598876476287842,-1.1596678495407104,-1.7089842557907104,60.0,246.0,1.0,Rest
302183.34375,280144.53125,711612.875,671782.0,323190.25,304005.71875,321219.71875,291687.0625,-0.083251953125,0.97705078125,-0.15087890625,-7.568358898162842,-0.9155272841453552,-1.5258787870407104,60.0,247.0,1.0,Rest
302185.6875,280279.625,711606.8125,671711.375,323212.40625,304054.90625,321236.15625,291833.25,-0.08203125,0.97509765625,-0.154052734375,-7.659911632537842,-0.6713866591453552,-1.4648436307907104,60.0,248.0,1.0,Rest
302030.03125,280280.25,711584.4375,671140.3125,322973.875,304031.21875,321089.96875,291708.25,-0.0810546875,0.9755859375,-0.157470703125,-7.537841320037842,-0.4577636420726776,-1.3732908964157104,60.0,249.0,1.0,Rest
301904.21875,280272.375,711568.8125,670550.875,322685.28125,304015.375,320943.875,291563.40625,-0.08447265625,0.97802734375,-0.15869140625,-7.141112804412842,-0.4272460639476776,-1.2817381620407104,60.0,250.0,1.0,Rest
302003.1875,280429.375,711566.8125,670567.75,322677.03125,304096.5625,321000.03125,291736.875,-0.08544921875,0.977294921875,-0.15576171875,-7.049560070037842,-0.3967284858226776,-1.2207030057907104,60.0,251.0,1.0,Rest
302164.84375,280667.1875,711569.4375,670892.5,322864.34375,304207.96875,321144.15625,292074.0,-0.087158203125,0.97412109375,-0.154296875,-7.019042491912842,-0.3356933295726776,-1.1596678495407104,60.0,252.0,1.0,Rest
302173.78125,280811.875,711565.3125,670834.6875,322920.3125,304266.1875,321174.28125,292231.46875,-0.08740234375,0.97412109375,-0.1513671875,-7.171630382537842,-0.2441406100988388,-1.0681151151657104,60.0,253.0,1.0,Rest
302021.625,280808.46875,711547.375,670270.5625,322719.15625,304240.34375,321030.625,292106.8125,-0.08984375,0.97216796875,-0.1484375,-7.202147960662842,-0.2441406100988388,-0.9155272841453552,60.0,254.0,1.0,Rest
301902.6875,280797.5625,711529.8125,669688.8125,322466.75,304219.25,320886.21875,291958.5,-0.09375,0.970947265625,-0.146728515625,-7.263183116912842,-0.1831054538488388,-0.9460448622703552,60.0,255.0,1.0,Rest
301986.9375,280942.3125,711525.375,669699.75,322483.28125,304278.59375,320928.5,292113.875,-0.09619140625,0.968994140625,-0.14697265625,-7.171630382537842,-0.3662109076976776,-1.0070799589157104,60.0,256.0,1.0,Rest
302139.4375,281186.125,711530.0625,670028.8125,322696.96875,304379.53125,321068.78125,292444.6875,-0.098876953125,0.96533203125,-0.148681640625,-7.293700695037842,-0.3356933295726776,-1.0375975370407104,60.0,257.0,1.0,Rest
302140.96875,281321.5625,711524.5625,669970.9375,322749.8125,304427.46875,321091.5,292591.3125,-0.101318359375,0.96435546875,-0.1484375,-7.324218273162842,-0.2746581733226776,-1.2207030057907104,60.0,258.0,1.0,Rest
301989.34375,281306.90625,711504.0625,669410.0,322528.34375,304404.84375,320948.1875,292461.9375,-0.102294921875,0.960205078125,-0.150634765625,-7.293700695037842,-0.3662109076976776,-1.2512205839157104,60.0,259.0,1.0,Rest
301865.40625,281274.8125,711482.375,668820.9375,322232.25,304386.78125,320796.0,292297.96875,-0.101806640625,0.95361328125,-0.151611328125,-7.354735851287842,-0.4882812201976776,-1.2817381620407104,60.0,260.0,1.0,Rest
301965.03125,281418.84375,711483.125,668846.3125,322217.75,304469.03125,320855.5625,292466.875,-0.100341796875,0.944580078125,-0.16015625,-7.019042491912842,-0.6408690810203552,-1.1901854276657104,60.0,261.0,1.0,Rest
302135.96875,281652.90625,711494.3125,669190.5,322406.40625,304590.375,321019.15625,292818.6875,-0.097900390625,0.939208984375,-0.15673828125,-6.622313976287842,-0.7629393935203552,-1.0070799589157104,60.0,262.0,1.0,Rest
302133.09375,281778.4375,711488.8125,669129.8125,322431.53125,304632.375,321036.15625,292951.1875,-0.098876953125,0.9365234375,-0.15966796875,-6.011962413787842,-0.8850097060203552,-0.7324218153953552,60.0,263.0,1.0,Rest
301977.90625,281767.34375,711468.125,668570.3125,322208.71875,304602.34375,320891.3125,292814.40625,-0.100341796875,0.9375,-0.163330078125,-5.493163585662842,-1.1291502714157104,-0.7629393935203552,60.0,264.0,1.0,Rest
301977.90625,281767.34375,711468.125,668570.3125,322208.71875,304602.34375,320891.3125,292814.40625,-0.100341796875,0.9375,-0.163330078125,-5.493163585662842,-1.1291502714157104,-0.7629393935203552,60.0,265.0,0.0,Rest
301977.90625,281767.34375,711468.125,668570.3125,322208.71875,304602.34375,320891.3125,292814.40625,-0.100341796875,0.9375,-0.163330078125,-5.493163585662842,-1.1291502714157104,-0.7629393935203552,60.0,266.0,0.0,Rest
301977.90625,281767.34375,711468.125,668570.3125,322208.71875,304602.34375,320891.3125,292814.40625,-0.100341796875,0.9375,-0.163330078125,-5.493163585662842,-1.1291502714157104,-0.7629393935203552,60.0,267.0,0.0,Rest
301977.90625,281767.34375,711468.125,668570.3125,322208.71875,304602.34375,320891.3125,292814.40625,-0.100341796875,0.9375,-0.163330078125,-5.493163585662842,-1.1291502714157104,-0.7629393935203552,60.0,268.0,0.0,Rest
301977.90625,281767.34375,711468.125,668570.3125,322208.71875,304602.34375,320891.3125,292814.40625,-0.100341796875,0.9375,-0.163330078125,-5.493163585662842,-1.1291502714157104,-0.7629393935203552,60.0,269.0,0.0,Rest
301977.90625,281767.34375,711468.125,668570.3125,322208.71875,304602.34375,320891.3125,292814.40625,-0.100341796875,0.9375,-0.163330078125,-5.493163585662842,-1.1291502714157104,-0.7629393935203552,60.0,270.0,0.0,Rest
301977.90625,281767.34375,711468.125,668570.3125,322208.71875,304602.34375,320891.3125,292814.40625,-0.100341796875,0.9375,-0.163330078125,-5.493163585662842,-1.1291502714157104,-0.7629393935203552,60.0,271.0,0.0,Rest
301977.90625,281767.34375,711468.125,668570.3125,322208.71875,304602.34375,320891.3125,292814.40625,-0.100341796875,0.9375,-0.163330078125,-5.493163585662842,-1.1291502714157104,-0.7629393935203552,60.0,272.0,0.0,Rest
301977.90625,281767.34375,711468.125,668570.3125,322208.71875,304602.34375,320891.3125,292814.40625,-0.100341796875,0.9375,-0.163330078125,-5.493163585662842,-1.1291502714157104,-0.7629393935203552,60.0,273.0,0.0,Rest
301977.90625,281767.34375,711468.125,668570.3125,322208.71875,304602.34375,320891.3125,292814.40625,-0.100341796875,0.9375,-0.163330078125,-5.493163585662842,-1.1291502714157104,-0.7629393935203552,60.0,274.0,0.0,Rest
301977.90625,281767.34375,711468.125,668570.3125,322208.71875,304602.34375,320891.3125,292814.40625,-0.100341796875,0.9375,-0.163330078125,-5.493163585662842,-1.1291502714157104,-0.7629393935203552,60.0,275.0,0.0,Rest
301977.90625,281767.34375,711468.125,668570.3125,322208.71875,304602.34375,320891.3125,292814.40625,-0.100341796875,0.9375,-0.163330078125,-5.493163585662842,-1.1291502714157104,-0.7629393935203552,60.0,276.0,0.0,Rest
301977.90625,281767.34375,711468.125,668570.3125,322208.71875,304602.34375,320891.3125,292814.40625,-0.100341796875,0.9375,-0.163330078125,-5.493163585662842,-1.1291502714157104,-0.7629393935203552,60.0,277.0,0.0,Rest
301977.90625,281767.34375,711468.125,668570.3125,322208.71875,304602.34375,320891.3125,292814.40625,-0.100341796875,0.9375,-0.163330078125,-5.493163585662842,-1.1291502714157104,-0.7629393935203552,60.0,278.0,0.0,Rest
301977.90625,281767.34375,711468.125,668570.3125,322208.71875,304602.34375,320891.3125,292814.40625,-0.100341796875,0.9375,-0.163330078125,-5.493163585662842,-1.1291502714157104,-0.7629393935203552,60.0,279.0,0.0,Rest
301977.90625,281767.34375,711468.125,668570.3125,322208.71875,304602.34375,320891.3125,292814.40625,-0.100341796875,0.9375,-0.163330078125,-5.493163585662842,-1.1291502714157104,-0.7629393935203552,60.0,280.0,0.0,Rest
301977.90625,281767.34375,711468.125,668570.3125,322208.71875,304602.34375,320891.3125,292814.40625,-0.100341796875,0.9375,-0.163330078125,-5.493163585662842,-1.1291502714157104,-0.7629393935203552,60.0,281.0,0.0,Rest
301977.90625,281767.34375,711468.125,668570.3125,322208.71875,304602.34375,320891.3125,292814.40625,-0.100341796875,0.9375,-0.163330078125,-5.493163585662842,-1.1291502714157104,-0.7629393935203552,60.0,282.0,0.0,Rest
301977.90625,281767.34375,711468.125,668570.3125,322208.71875,304602.34375,320891.3125,292814.40625,-0.100341796875,0.9375,-0.163330078125,-5.493163585662842,-1.1291502714157104,-0.7629393935203552,60.0,283.0,0.0,Rest
301977.90625,281767.34375,711468.125,668570.3125,322208.71875,304602.34375,320891.3125,292814.40625,-0.100341796875,0.9375,-0.163330078125,-5.493163585662842,-1.1291502714157104,-0.7629393935203552,60.0,284.0,0.0,Rest
301977.90625,281767.34375,711468.125,668570.3125,322208.71875,304602.34375,320891.3125,292814.40625,-0.100341796875,0.9375,-0.163330078125,-5.493163585662842,-1.1291502714157104,-0.7629393935203552,60.0,285.0,0.0,Rest
301977.90625,281767.34375,711468.125,668570.3125,322208.71875,304602.34375,320891.3125,292814.40625,-0.100341796875,0.9375,-0.163330078125,-5.493163585662842,-1.1291502714157104,-0.7629393935203552,60.0,286.0,0.0,Rest
301977.90625,281767.34375,711468.125,668570.3125,322208.71875,304602.34375,320891.3125,292814.40625,-0.100341796875,0.9375,-0.163330078125,-5.493163585662842,-1.1291502714157104,-0.7629393935203552,60.0,287.0,0.0,Rest
301977.90625,281767.34375,711468.125,668570.3125,322208.71875,304602.34375,320891.3125,292814.40625,-0.100341796875,0.9375,-0.163330078125,-5.493163585662842,-1.1291502714157104,-0.7629393935203552,60.0,288.0,0.0,Rest
301977.90625,281767.34375,711468.125,668570.3125,322208.71875,304602.34375,320891.3125,292814.40625,-0.100341796875,0.9375,-0.163330078125,-5.493163585662842,-1.1291502714157104,-0.7629393935203552,60.0,289.0,0.0,Rest
301977.90625,281767.34375,711468.125,668570.3125,322208.71875,304602.34375,320891.3125,292814.40625,-0.100341796875,0.9375,-0.163330078125,-5.493163585662842,-1.1291502714157104,-0.7629393935203552,60.0,290.0,0.0,Rest
301977.90625,281767.34375,711468.125,668570.3125,322208.71875,304602.34375,320891.3125,292814.40625,-0.100341796875,0.9375,-0.163330078125,-5.493163585662842,-1.1291502714157104,-0.7629393935203552,60.0,291.0,0.0,Rest
301977.90625,281767.34375,711468.125,668570.3125,322208.71875,304602.34375,320891.3125,292814.40625,-0.100341796875,0.9375,-0.163330078125,-5.493163585662842,-1.1291502714157104,-0.7629393935203552,60.0,292.0,0.0,Rest
301977.90625,281767.34375,711468.125,668570.3125,322208.71875,304602.34375,320891.3125,292814.40625,-0.100341796875,0.9375,-0.163330078125,-5.493163585662842,-1.1291502714157104,-0.7629393935203552,60.0,293.0,0.0,Rest
301977.90625,281767.34375,711468.125,668570.3125,322208.71875,304602.34375,320891.3125,292814.40625,-0.100341796875,0.9375,-0.163330078125,-5.493163585662842,-1.1291502714157104,-0.7629393935203552,60.0,294.0,0.0,Rest
301977.90625,281767.34375,711468.125,668570.3125,322208.71875,304602.34375,320891.3125,292814.40625,-0.100341796875,0.9375,-0.163330078125,-5.493163585662842,-1.1291502714157104,-0.7629393935203552,60.0,295.0,0.0,Rest
301977.90625,281767.34375,711468.125,668570.3125,322208.71875,304602.34375,320891.3125,292814.40625,-0.100341796875,0.9375,-0.163330078125,-5.493163585662842,-1.1291502714157104,-0.7629393935203552,60.0,296.0,0.0,Rest
301977.90625,281767.34375,711468.125,668570.3125,322208.71875,304602.34375,320891.3125,292814.40625,-0.100341796875,0.9375,-0.163330078125,-5.493163585662842,-1.1291502714157104,-0.7629393935203552,60.0,297.0,0.0,Rest
301977.90625,281767.34375,711468.125,668570.3125,322208.71875,304602.34375,320891.3125,292814.40625,-0.100341796875,0.9375,-0.163330078125,-5.493163585662842,-1.1291502714157104,-0.7629393935203552,60.0,298.0,0.0,Rest
301977.90625,281767.34375,711468.125,668570.3125,322208.71875,304602.34375,320891.3125,292814.40625,-0.100341796875,0.9375,-0.163330078125,-5.493163585662842,-1.1291502714157104,-0.7629393935203552,60.0,299.0,0.0,Rest
301977.90625,281767.34375,711468.125,668570.3125,322208.71875,304602.34375,320891.3125,292814.40625,-0.100341796875,0.9375,-0.163330078125,-5.493163585662842,-1.1291502714157104,-0.7629393935203552,60.0,300.0,0.0,Rest
301977.90625,281767.34375,711468.125,668570.3125,322208.71875,304602.34375,320891.3125,292814.40625,-0.100341796875,0.9375,-0.163330078125,-5.493163585662842,-1.1291502714157104,-0.7629393935203552,60.0,301.0,0.0,Rest
301977.90625,281767.34375,711468.125,668570.3125,322208.71875,304602.34375,320891.3125,292814.40625,-0.100341796875,0.9375,-0.163330078125,-5.493163585662842,-1.1291502714157104,-0.7629393935203552,60.0,302.0,0.0,Rest
301977.90625,281767.34375,711468.125,668570.3125,322208.71875,304602.34375,320891.3125,292814.40625,-0.100341796875,0.9375,-0.163330078125,-5.493163585662842,-1.1291502714157104,-0.7629393935203552,60.0,303.0,0.0,Rest
301869.34375,284861.71875,711247.3125,662445.1875,320738.0625,305823.46875,320562.3125,295173.40625,-0.0859375,0.973388671875,-0.137451171875,-7.934569835662842,-5.401610851287842,2.471923589706421,60.0,304.0,1.0,Rest
301746.96875,284811.75,711229.6875,661888.0,320479.3125,305786.90625,320413.0,294991.28125,-0.086181640625,0.977294921875,-0.135498046875,-8.178709983825684,-5.676269054412842,2.532958745956421,60.0,305.0,1.0,Rest
301838.25,284929.875,711231.0,661926.75,320491.75,305838.40625,320461.28125,295119.5625,-0.084716796875,0.977294921875,-0.134765625,-8.300780296325684,-5.859374523162842,2.532958745956421,60.0,306.0,1.0,Rest
302001.5,285135.3125,711239.25,662287.9375,320704.90625,305931.90625,320613.875,295430.875,-0.085693359375,0.976806640625,-0.1328125,-8.483885765075684,-6.134032726287842,2.502441167831421,60.0,307.0,1.0,Rest
302008.90625,285238.03125,711238.6875,662264.625,320771.6875,305970.0,320643.65625,295553.46875,-0.08642578125,0.97705078125,-0.132080078125,-8.697508811950684,-6.286620616912842,2.471923589706421,60.0,308.0,1.0,Rest
301858.34375,285195.9375,711220.8125,661739.875,320579.8125,305936.375,320509.90625,295403.53125,-0.08642578125,0.978759765625,-0.12939453125,-8.789061546325684,-6.469726085662842,2.471923589706421,60.0,309.0,1.0,Rest
301729.25,285134.15625,711204.4375,661183.4375,320327.15625,305902.6875,320363.90625,295221.75,-0.084716796875,0.978759765625,-0.12841796875,-8.911131858825684,-6.561278820037842,2.380370855331421,60.0,310.0,1.0,Rest
301824.65625,285244.40625,711209.375,661228.8125,320358.0,305968.9375,320425.15625,295358.75,-0.082275390625,0.97607421875,-0.127685546875,-9.124754905700684,-6.744384288787842,2.410888433456421,60.0,311.0,1.0,Rest
301990.6875,285443.9375,711219.875,661596.0,320581.96875,306069.25,320585.8125,295676.125,-0.081787109375,0.973876953125,-0.1279296875,-9.185790061950684,-6.805419445037842,2.410888433456421,60.0,312.0,1.0,Rest
301984.96875,285528.25,711218.125,661564.375,320644.65625,306097.5,320604.0625,295785.65625,-0.0810546875,0.97119140625,-0.131103515625,-9.246825218200684,-6.896972179412842,2.532958745956421,60.0,313.0,1.0,Rest
301839.75,285487.9375,711203.125,661045.375,320455.53125,306063.0,320470.3125,295630.28125,-0.080078125,0.96826171875,-0.128662109375,-9.277342796325684,-7.019042491912842,2.685546636581421,60.0,314.0,1.0,Rest
301726.03125,285437.78125,711187.5625,660494.4375,320199.21875,306036.34375,320335.21875,295454.40625,-0.082763671875,0.9658203125,-0.12744140625,-9.155272483825684,-7.171630382537842,2.807616949081421,60.0,315.0,1.0,Rest
301811.15625,285547.9375,711191.875,660531.875,320211.03125,306088.75,320391.34375,295587.0,-0.084228515625,0.966552734375,-0.12548828125,-9.063719749450684,-7.354735851287842,3.021239995956421,60.0,316.0,1.0,Rest
301973.15625,285751.34375,711202.5625,660898.3125,320422.1875,306177.4375,320550.6875,295900.8125,-0.084716796875,0.966796875,-0.1259765625,-8.880614280700684,-7.537841320037842,2.929687261581421,60.0,317.0,1.0,Rest
301977.09375,285852.28125,711199.375,660878.8125,320475.5625,306209.15625,320583.40625,296016.6875,-0.08447265625,0.9697265625,-0.1240234375,-8.666991233825684,-7.781981945037842,2.685546636581421,60.0,318.0,1.0,Rest
301829.9375,285817.125,711183.8125,660363.1875,320283.78125,306177.78125,320454.125,295865.5,-0.0849609375,0.97021484375,-0.12451171875,-8.544920921325684,-7.934569835662842,2.380370855331421,60.0,319.0,1.0,Rest
301704.84375,285753.9375,711166.5,659810.3125,320024.96875,306142.5625,320306.5,295676.59375,-0.08544921875,0.971435546875,-0.1220703125,-8.361815452575684,-8.117674827575684,2.166747808456421,60.0,320.0,1.0,Rest
301801.5,285860.125,711169.625,659860.4375,320052.78125,306209.09375,320368.5625,295810.0625,-0.084228515625,0.969482421875,-0.119873046875,-7.965087413787842,-8.239745140075684,2.105712652206421,60.0,321.0,1.0,Rest
301961.625,286039.21875,711181.25,660222.9375,320279.25,306309.03125,320526.625,296116.0,-0.082763671875,0.968017578125,-0.12060546875,-7.904052257537842,-8.300780296325684,2.044677495956421,60.0,322.0,1.0,Rest
301960.8125,286125.9375,711181.375,660199.1875,320355.0625,306342.125,320557.1875,296231.71875,-0.081787109375,0.96826171875,-0.1171875,-7.751464366912842,-8.514403343200684,2.166747808456421,60.0,323.0,1.0,Rest
301809.625,286086.25,711165.375,659680.8125,320175.25,306305.46875,320424.875,296075.96875,-0.08203125,0.968017578125,-0.11572265625,-7.659911632537842,-8.605956077575684,2.166747808456421,60.0,324.0,1.0,Rest
301681.78125,286028.21875,711150.0,659123.8125,319925.28125,306267.375,320278.25,295885.96875,-0.082763671875,0.970458984375,-0.111572265625,-7.659911632537842,-8.850096702575684,1.9836424589157104,60.0,325.0,1.0,Rest
301771.0,286136.75,711153.0625,659165.6875,319947.0,306319.59375,320330.8125,296014.28125,-0.08251953125,0.97314453125,-0.11279296875,-7.507323741912842,-9.002684593200684,1.8920897245407104,60.0,326.0,1.0,Rest
301771.0,286136.75,711153.0625,659165.6875,319947.0,306319.59375,320330.8125,296014.28125,-0.08251953125,0.97314453125,-0.11279296875,-7.507323741912842,-9.002684593200684,1.8920897245407104,60.0,327.0,0.0,Rest
301771.0,286136.75,711153.0625,659165.6875,319947.0,306319.59375,320330.8125,296014.28125,-0.08251953125,0.97314453125,-0.11279296875,-7.507323741912842,-9.002684593200684,1.8920897245407104,60.0,328.0,0.0,Rest
301771.0,286136.75,711153.0625,659165.6875,319947.0,306319.59375,320330.8125,296014.28125,-0.08251953125,0.97314453125,-0.11279296875,-7.507323741912842,-9.002684593200684,1.8920897245407104,60.0,329.0,0.0,Rest
301771.0,286136.75,711153.0625,659165.6875,319947.0,306319.59375,320330.8125,296014.28125,-0.08251953125,0.97314453125,-0.11279296875,-7.507323741912842,-9.002684593200684,1.8920897245407104,60.0,330.0,0.0,Rest
301771.0,286136.75,711153.0625,659165.6875,319947.0,306319.59375,320330.8125,296014.28125,-0.08251953125,0.97314453125,-0.11279296875,-7.507323741912842,-9.002684593200684,1.8920897245407104,60.0,331.0,0.0,Rest
301771.0,286136.75,711153.0625,659165.6875,319947.0,306319.59375,320330.8125,296014.28125,-0.08251953125,0.97314453125,-0.11279296875,-7.507323741912842,-9.002684593200684,1.8920897245407104,60.0,332.0,0.0,Rest
301771.0,286136.75,711153.0625,659165.6875,319947.0,306319.59375,320330.8125,296014.28125,-0.08251953125,0.97314453125,-0.11279296875,-7.507323741912842,-9.002684593200684,1.8920897245407104,60.0,333.0,0.0,Rest
301771.0,286136.75,711153.0625,659165.6875,319947.0,306319.59375,320330.8125,296014.28125,-0.08251953125,0.97314453125,-0.11279296875,-7.507323741912842,-9.002684593200684,1.8920897245407104,60.0,334.0,0.0,Rest
301771.0,286136.75,711153.0625,659165.6875,319947.0,306319.59375,320330.8125,296014.28125,-0.08251953125,0.97314453125,-0.11279296875,-7.507323741912842,-9.002684593200684,1.8920897245407104,60.0,335.0,0.0,Rest
301771.0,286136.75,711153.0625,659165.6875,319947.0,306319.59375,320330.8125,296014.28125,-0.08251953125,0.97314453125,-0.11279296875,-7.507323741912842,-9.002684593200684,1.8920897245407104,60.0,336.0,0.0,Rest
301771.0,286136.75,711153.0625,659165.6875,319947.0,306319.59375,320330.8125,296014.28125,-0.08251953125,0.97314453125,-0.11279296875,-7.507323741912842,-9.002684593200684,1.8920897245407104,60.0,337.0,0.0,Rest
301771.0,286136.75,711153.0625,659165.6875,319947.0,306319.59375,320330.8125,296014.28125,-0.08251953125,0.97314453125,-0.11279296875,-7.507323741912842,-9.002684593200684,1.8920897245407104,60.0,338.0,0.0,Rest
301771.0,286136.75,711153.0625,659165.6875,319947.0,306319.59375,320330.8125,296014.28125,-0.08251953125,0.97314453125,-0.11279296875,-7.507323741912842,-9.002684593200684,1.8920897245407104,60.0,339.0,0.0,Rest
301771.0,286136.75,711153.0625,659165.6875,319947.0,306319.59375,320330.8125,296014.28125,-0.08251953125,0.97314453125,-0.11279296875,-7.507323741912842,-9.002684593200684,1.8920897245407104,60.0,340.0,0.0,Rest
301771.0,286136.75,711153.0625,659165.6875,319947.0,306319.59375,320330.8125,296014.28125,-0.08251953125,0.97314453125,-0.11279296875,-7.507323741912842,-9.002684593200684,1.8920897245407104,60.0,341.0,0.0,Rest
301771.0,286136.75,711153.0625,659165.6875,319947.0,306319.59375,320330.8125,296014.28125,-0.08251953125,0.97314453125,-0.11279296875,-7.507323741912842,-9.002684593200684,1.8920897245407104,60.0,342.0,0.0,Rest
301771.0,286136.75,711153.0625,659165.6875,319947.0,306319.59375,320330.8125,296014.28125,-0.08251953125,0.97314453125,-0.11279296875,-7.507323741912842,-9.002684593200684,1.8920897245407104,60.0,343.0,0.0,Rest
301771.0,286136.75,711153.0625,659165.6875,319947.0,306319.59375,320330.8125,296014.28125,-0.08251953125,0.97314453125,-0.11279296875,-7.507323741912842,-9.002684593200684,1.8920897245407104,60.0,344.0,0.0,Rest
301771.0,286136.75,711153.0625,659165.6875,319947.0,306319.59375,320330.8125,296014.28125,-0.08251953125,0.97314453125,-0.11279296875,-7.507323741912842,-9.002684593200684,1.8920897245407104,60.0,345.0,0.0,Rest
301771.0,286136.75,711153.0625,659165.6875,319947.0,306319.59375,320330.8125,296014.28125,-0.08251953125,0.97314453125,-0.11279296875,-7.507323741912842,-9.002684593200684,1.8920897245407104,60.0,346.0,0.0,Rest
301771.0,286136.75,711153.0625,659165.6875,319947.0,306319.59375,320330.8125,296014.28125,-0.08251953125,0.97314453125,-0.11279296875,-7.507323741912842,-9.002684593200684,1.8920897245407104,60.0,347.0,0.0,Rest
301771.0,286136.75,711153.0625,659165.6875,319947.0,306319.59375,320330.8125,296014.28125,-0.08251953125,0.97314453125,-0.11279296875,-7.507323741912842,-9.002684593200684,1.8920897245407104,60.0,348.0,0.0,Rest
301771.0,286136.75,711153.0625,659165.6875,319947.0,306319.59375,320330.8125,296014.28125,-0.08251953125,0.97314453125,-0.11279296875,-7.507323741912842,-9.002684593200684,1.8920897245407104,60.0,349.0,0.0,Rest
301771.0,286136.75,711153.0625,659165.6875,319947.0,306319.59375,320330.8125,296014.28125,-0.08251953125,0.97314453125,-0.11279296875,-7.507323741912842,-9.002684593200684,1.8920897245407104,60.0,350.0,0.0,Rest
301771.0,286136.75,711153.0625,659165.6875,319947.0,306319.59375,320330.8125,296014.28125,-0.08251953125,0.97314453125,-0.11279296875,-7.507323741912842,-9.002684593200684,1.8920897245407104,60.0,351.0,0.0,Rest
301771.0,286136.75,711153.0625,659165.6875,319947.0,306319.59375,320330.8125,296014.28125,-0.08251953125,0.97314453125,-0.11279296875,-7.507323741912842,-9.002684593200684,1.8920897245407104,60.0,352.0,0.0,Rest
301773.40625,287716.40625,711077.75,656231.9375,319555.5625,306952.3125,320367.125,297288.6875,-0.072509765625,0.968017578125,-0.111328125,-4.272460460662842,-9.338377952575684,1.6174315214157104,60.0,353.0,1.0,Rest
301623.84375,287657.40625,711060.625,655733.8125,319376.65625,306917.4375,320234.8125,297124.4375,-0.071533203125,0.968994140625,-0.11083984375,-4.028319835662842,-9.216307640075684,1.4343260526657104,60.0,354.0,1.0,Rest
301493.3125,287583.625,711039.0,655198.4375,319132.40625,306887.3125,320097.375,296930.6875,-0.06982421875,0.971923828125,-0.10791015625,-3.967284917831421,-9.216307640075684,1.4648436307907104,60.0,355.0,1.0,Rest
301580.3125,287672.6875,711041.0625,655249.9375,319147.6875,306936.0625,320152.90625,297041.09375,-0.0712890625,0.97509765625,-0.107666015625,-3.936767339706421,-9.185790061950684,1.5869139432907104,60.0,356.0,1.0,Rest
301741.78125,287858.375,711054.25,655627.6875,319364.78125,307026.625,320318.3125,297340.25,-0.072021484375,0.97998046875,-0.1064453125,-3.997802495956421,-9.246825218200684,1.7700194120407104,60.0,357.0,1.0,Rest
301733.0,287933.21875,711050.875,655614.1875,319428.53125,307049.5,320345.5625,297439.9375,-0.072265625,0.982177734375,-0.105712890625,-4.180907726287842,-9.063719749450684,1.9226073026657104,60.0,358.0,1.0,Rest
301576.90625,287876.71875,710989.6875,655110.4375,319248.375,307007.21875,320215.40625,297278.5625,-0.07373046875,0.98095703125,-0.10498046875,-4.425048351287842,-8.758543968200684,2.044677495956421,60.0,359.0,1.0,Rest
301452.4375,287810.46875,710614.125,654573.0,319004.1875,306969.9375,320080.03125,297088.3125,-0.0732421875,0.980712890625,-0.103759765625,-4.547118663787842,-8.697508811950684,2.075195074081421,60.0,360.0,1.0,Rest
301543.03125,287913.1875,710352.875,654624.75,319027.1875,307021.78125,320134.3125,297201.59375,-0.072998046875,0.9794921875,-0.101806640625,-4.669188976287842,-8.575438499450684,2.075195074081421,60.0,361.0,1.0,Rest
301699.03125,288097.71875,710503.9375,655000.0,319242.03125,307109.84375,320287.8125,297493.0625,-0.074951171875,0.978271484375,-0.102294921875,-4.913329601287842,-8.666991233825684,1.9836424589157104,60.0,362.0,1.0,Rest
301692.5,288170.78125,710379.125,654994.5625,319302.71875,307128.90625,320310.0,297585.6875,-0.072509765625,0.976806640625,-0.1044921875,-4.913329601287842,-8.850096702575684,1.9531248807907104,60.0,363.0,1.0,Rest
301534.625,288106.65625,709651.375,654493.8125,319118.5625,307082.21875,320176.0625,297417.5,-0.07080078125,0.976806640625,-0.10498046875,-4.882812023162842,-8.850096702575684,1.8615721464157104,60.0,364.0,1.0,Rest
301413.65625,288037.03125,708660.5625,653963.625,318880.90625,307048.4375,320041.9375,297226.90625,-0.070068359375,0.974365234375,-0.106689453125,-5.004882335662842,-8.880614280700684,1.9531248807907104,60.0,365.0,1.0,Rest
301496.09375,288118.5625,708297.375,654011.875,318904.15625,307098.21875,320093.4375,297337.125,-0.07080078125,0.97216796875,-0.11083984375,-5.126952648162842,-8.789061546325684,2.075195074081421,60.0,366.0,1.0,Rest
301663.28125,288299.34375,708509.125,654389.75,319128.3125,307195.0625,320255.28125,297636.5625,-0.070068359375,0.97021484375,-0.11083984375,-5.035399913787842,-8.666991233825684,2.288818120956421,60.0,367.0,1.0,Rest
301665.875,288372.9375,708360.0,654387.9375,319191.96875,307213.9375,320280.3125,297731.40625,-0.071044921875,0.9697265625,-0.108154296875,-5.004882335662842,-8.605956077575684,2.624511480331421,60.0,368.0,1.0,Rest
301519.5,288322.125,707529.6875,653900.25,319011.09375,307171.90625,320152.625,297568.25,-0.0732421875,0.972900390625,-0.103759765625,-4.882812023162842,-8.697508811950684,2.746581792831421,60.0,369.0,1.0,Rest
301398.0,288250.96875,706477.25,653362.8125,318758.0625,307127.1875,320009.75,297365.65625,-0.0751953125,0.9775390625,-0.102783203125,-4.882812023162842,-8.850096702575684,2.807616949081421,60.0,370.0,1.0,Rest
301486.59375,288345.84375,706141.0,653406.0,318773.625,307173.34375,320065.46875,297474.375,-0.076416015625,0.97900390625,-0.099365234375,-4.974364757537842,-8.850096702575684,2.838134527206421,60.0,371.0,1.0,Rest
301648.4375,288536.96875,706369.8125,653783.125,318995.0,307263.53125,320227.65625,297771.21875,-0.073974609375,0.979248046875,-0.10009765625,-5.096435070037842,-8.972167015075684,2.624511480331421,60.0,372.0,1.0,Rest
301652.0,288613.875,706223.5,653782.1875,319067.6875,307288.75,320258.125,297869.5625,-0.0732421875,0.976806640625,-0.099609375,-5.218505382537842,-8.850096702575684,2.502441167831421,60.0,373.0,1.0,Rest
301504.21875,288553.0625,705421.6875,653293.75,318897.09375,307256.46875,320136.90625,297709.875,-0.0712890625,0.974853515625,-0.101806640625,-5.310058116912842,-8.758543968200684,2.441406011581421,60.0,374.0,1.0,Rest
301390.21875,288485.9375,704454.25,652773.1875,318670.28125,307239.84375,320015.84375,297521.9375,-0.07080078125,0.974853515625,-0.099853515625,-5.401610851287842,-8.666991233825684,2.441406011581421,60.0,375.0,1.0,Rest
301479.8125,288567.84375,704141.3125,652825.75,318699.9375,307295.8125,320072.96875,297629.84375,-0.06884765625,0.9697265625,-0.10107421875,-5.340575695037842,-8.544920921325684,2.563476324081421,60.0,376.0,1.0,Rest
301641.09375,288746.8125,704358.75,653205.25,318930.34375,307388.96875,320231.9375,297926.5,-0.0703125,0.97021484375,-0.099365234375,-5.310058116912842,-8.544920921325684,2.807616949081421,60.0,377.0,1.0,Rest
301634.75,288822.625,704233.5625,653206.25,319003.5,307416.15625,320265.5625,298029.40625,-0.072998046875,0.971923828125,-0.101806640625,-5.279540538787842,-8.605956077575684,2.990722417831421,60.0,378.0,1.0,Rest
301482.59375,288766.84375,703481.75,652712.625,318821.09375,307371.90625,320137.625,297866.34375,-0.07470703125,0.97314453125,-0.100830078125,-5.096435070037842,-8.605956077575684,2.990722417831421,60.0,379.0,1.0,Rest
301361.0625,288697.28125,702559.6875,652179.75,318568.625,307325.25,319996.0,297668.375,-0.075439453125,0.97412109375,-0.098388671875,-4.882812023162842,-8.819579124450684,2.960204839706421,60.0,380.0,1.0,Rest
301452.09375,288784.09375,702261.625,652231.25,318577.0,307366.1875,320046.0625,297775.5,-0.07568359375,0.9755859375,-0.0986328125,-4.730224132537842,-9.033202171325684,2.807616949081421,60.0,381.0,1.0,Rest
301605.34375,288952.90625,702461.4375,652604.6875,318785.59375,307448.34375,320200.1875,298064.28125,-0.0732421875,0.975830078125,-0.09814453125,-4.577636241912842,-9.094237327575684,2.471923589706421,60.0,382.0,1.0,Rest
301601.40625,289013.0625,702328.4375,652597.625,318845.9375,307468.1875,320225.21875,298156.71875,-0.071044921875,0.976318359375,-0.096435546875,-4.577636241912842,-9.185790061950684,2.319335699081421,60.0,383.0,1.0,Rest
301457.90625,288948.53125,701601.4375,652105.75,318666.59375,307425.5625,320097.75,297985.96875,-0.069580078125,0.9765625,-0.09423828125,-4.730224132537842,-9.277342796325684,2.227782964706421,60.0,384.0,1.0,Rest
301336.40625,288876.28125,700714.375,651579.9375,318437.1875,307389.96875,319965.5,297790.4375,-0.068115234375,0.97607421875,-0.0947265625,-4.760741710662842,-9.185790061950684,2.227782964706421,60.0,385.0,1.0,Rest
301427.25,288964.53125,700439.875,651639.3125,318475.625,307444.875,320025.5,297900.5625,-0.066650390625,0.977294921875,-0.095703125,-4.730224132537842,-9.063719749450684,2.197265386581421,60.0,386.0,1.0,Rest
301593.875,289139.84375,700648.875,652016.75,318700.75,307532.65625,320179.1875,298185.25,-0.06640625,0.976318359375,-0.094482421875,-4.730224132537842,-8.880614280700684,2.258300542831421,60.0,387.0,1.0,Rest
301592.46875,289206.71875,700534.3125,652013.0,318775.5,307551.625,320198.9375,298272.5,-0.06640625,0.974609375,-0.09521484375,-4.730224132537842,-8.728026390075684,2.380370855331421,60.0,388.0,1.0,Rest
301446.90625,289144.40625,699827.0,651529.9375,318604.375,307507.0,320066.4375,298106.21875,-0.06787109375,0.9755859375,-0.0966796875,-4.760741710662842,-8.636473655700684,2.593993902206421,60.0,389.0,1.0,Rest
301336.3125,289079.78125,698947.3125,651014.1875,318370.5,307474.8125,319935.09375,297916.3125,-0.066650390625,0.977783203125,-0.093994140625,-4.730224132537842,-8.575438499450684,2.593993902206421,60.0,390.0,1.0,Rest
301427.6875,289169.09375,698676.25,651070.125,318389.09375,307522.03125,319995.0,298024.0625,-0.067626953125,0.979736328125,-0.09375,-4.608153820037842,-8.666991233825684,2.532958745956421,60.0,391.0,1.0,Rest
301580.5625,289343.875,698892.4375,651440.0,318596.5,307604.8125,320151.65625,298303.28125,-0.071044921875,0.9814453125,-0.09130859375,-4.638671398162842,-8.850096702575684,2.319335699081421,60.0,392.0,1.0,Rest
301576.28125,289414.78125,698792.25,651441.25,318656.21875,307627.6875,320185.71875,298395.625,-0.0703125,0.98193359375,-0.0908203125,-4.638671398162842,-8.850096702575684,2.075195074081421,60.0,393.0,1.0,Rest
301425.28125,289348.25,698098.75,650952.1875,318471.5,307582.46875,320061.71875,298226.28125,-0.067626953125,0.978759765625,-0.092529296875,-4.608153820037842,-8.880614280700684,2.044677495956421,60.0,394.0,1.0,Rest
301303.125,289265.46875,697227.1875,650426.3125,318231.46875,307546.15625,319928.84375,298025.9375,-0.066162109375,0.978759765625,-0.088623046875,-4.730224132537842,-8.758543968200684,2.105712652206421,60.0,395.0,1.0,Rest
301389.9375,289339.6875,696958.0625,650481.6875,318259.71875,307593.0,319980.53125,298126.25,-0.0654296875,0.974853515625,-0.0859375,-4.669188976287842,-8.728026390075684,2.197265386581421,60.0,396.0,1.0,Rest
301550.78125,289507.6875,697176.9375,650860.75,318483.84375,307678.75,320138.0625,298412.6875,-0.06298828125,0.973876953125,-0.0888671875,-4.760741710662842,-8.605956077575684,2.349853277206421,60.0,397.0,1.0,Rest
301545.25,289567.59375,697073.0625,650860.5,318555.28125,307696.0,320165.875,298502.09375,-0.06298828125,0.972412109375,-0.089111328125,-4.699706554412842,-8.605956077575684,2.441406011581421,60.0,398.0,1.0,Rest
301394.4375,289495.59375,696377.6875,650372.6875,318379.4375,307650.125,320038.625,298334.46875,-0.062744140625,0.968994140625,-0.09228515625,-4.730224132537842,-8.544920921325684,2.563476324081421,60.0,399.0,1.0,Rest
301282.40625,289432.125,695519.8125,649859.5625,318156.0,307621.96875,319915.53125,298150.1875,-0.0625,0.969482421875,-0.091796875,-4.608153820037842,-8.422850608825684,2.471923589706421,60.0,400.0,1.0,Rest
301378.0625,289523.59375,695259.8125,649920.25,318185.5,307671.875,319971.21875,298254.90625,-0.063720703125,0.971923828125,-0.09375,-4.394530773162842,-8.422850608825684,2.319335699081421,60.0,401.0,1.0,Rest
301535.40625,289695.25,695474.0,650295.5,318393.375,307751.0,320119.5625,298528.40625,-0.064697265625,0.975341796875,-0.092529296875,-4.211425304412842,-8.422850608825684,2.075195074081421,60.0,402.0,1.0,Rest
301549.46875,289778.125,695391.0625,650313.5625,318470.4375,307780.75,320159.96875,298631.3125,-0.065673828125,0.977783203125,-0.09130859375,-4.119872570037842,-8.209227561950684,1.7700194120407104,60.0,403.0,1.0,Rest
301409.8125,289719.21875,694709.3125,649835.1875,318299.21875,307739.1875,320037.3125,298462.40625,-0.066162109375,0.978759765625,-0.088134765625,-4.150390148162842,-7.995604991912842,1.5869139432907104,60.0,404.0,1.0,Rest
301282.75,289632.21875,693839.875,649307.5625,318062.5625,307698.59375,319899.625,298253.90625,-0.061279296875,0.979248046875,-0.0859375,-4.211425304412842,-7.690429210662842,1.4038084745407104,60.0,405.0,1.0,Rest
301369.21875,289701.59375,693568.25,649358.1875,318085.09375,307743.3125,319947.90625,298347.78125,-0.05712890625,0.977294921875,-0.083740234375,-4.241942882537842,-7.415771007537842,1.3122557401657104,60.0,406.0,1.0,Rest
301527.375,289860.5625,693781.125,649735.5625,318300.46875,307827.875,320099.78125,298629.4375,-0.0546875,0.974365234375,-0.081298828125,-4.364013195037842,-7.202147960662842,1.3427733182907104,60.0,407.0,1.0,Rest
301534.6875,289927.25,693686.25,649749.4375,318378.53125,307862.75,320137.25,298731.625,-0.05419921875,0.97119140625,-0.08154296875,-4.547118663787842,-7.141112804412842,1.4648436307907104,60.0,408.0,1.0,Rest
301389.9375,289861.1875,693003.6875,649274.6875,318205.25,307827.4375,320013.53125,298563.1875,-0.0546875,0.9677734375,-0.08251953125,-4.516601085662842,-7.232665538787842,1.6784666776657104,60.0,409.0,1.0,Rest
301264.25,289780.71875,692139.25,648748.875,317955.46875,307778.96875,319866.8125,298353.0625,-0.0546875,0.96484375,-0.086669921875,-4.425048351287842,-7.171630382537842,1.6784666776657104,60.0,410.0,1.0,Rest
301357.21875,289868.6875,691885.4375,648809.1875,317968.5,307818.5,319914.90625,298450.25,-0.056396484375,0.963623046875,-0.089599609375,-4.211425304412842,-7.110595226287842,1.6784666776657104,60.0,411.0,1.0,Rest
301517.28125,290041.53125,692114.4375,649194.625,318172.4375,307886.53125,320061.15625,298726.53125,-0.058837890625,0.96240234375,-0.088623046875,-3.875732183456421,-6.988524913787842,1.5869139432907104,60.0,412.0,1.0,Rest
301528.09375,290115.8125,692035.8125,649215.6875,318248.4375,307906.46875,320094.6875,298824.5,-0.062255859375,0.96337890625,-0.08447265625,-3.417968511581421,-6.866454601287842,1.3122557401657104,60.0,413.0,1.0,Rest
301385.75,290056.46875,691364.0,648745.8125,318086.0,307865.96875,319973.8125,298664.125,-0.067626953125,0.96630859375,-0.086669921875,-2.990722417831421,-6.744384288787842,1.0070799589157104,60.0,414.0,1.0,Rest
301259.875,289975.28125,690502.4375,648225.75,317856.84375,307823.84375,319835.6875,298458.9375,-0.071044921875,0.96923828125,-0.083740234375,-2.624511480331421,-6.805419445037842,0.7934569716453552,60.0,415.0,1.0,Rest
301351.6875,290052.96875,690238.625,648283.0625,317890.8125,307867.3125,319891.46875,298553.875,-0.070068359375,0.97314453125,-0.08154296875,-2.319335699081421,-6.835937023162842,0.4272460639476776,60.0,416.0,1.0,Rest
301505.28125,290214.875,690466.6875,648663.375,318124.71875,307948.3125,320051.96875,298830.15625,-0.069091796875,0.9765625,-0.082763671875,-2.227782964706421,-6.744384288787842,0.3051757514476776,60.0,417.0,1.0,Rest
301511.0,290277.5625,690379.8125,648672.625,318213.40625,307977.46875,320090.0625,298921.59375,-0.066650390625,0.974609375,-0.082763671875,-2.227782964706421,-6.744384288787842,0.1831054538488388,60.0,418.0,1.0,Rest
301372.96875,290219.1875,689714.8125,648196.125,318052.46875,307944.46875,319974.4375,298758.34375,-0.06396484375,0.9765625,-0.0810546875,-2.197265386581421,-6.591796398162842,0.0915527269244194,60.0,419.0,1.0,Rest
301249.0625,290138.0,688859.6875,647668.9375,317804.09375,307907.1875,319838.5625,298549.40625,-0.0625,0.9765625,-0.079833984375,-2.014159917831421,-6.622313976287842,0.0,60.0,420.0,1.0,Rest
301337.65625,290208.09375,688608.1875,647725.3125,317804.8125,307953.78125,319888.0,298644.25,-0.060791015625,0.9775390625,-0.07958984375,-1.9226073026657104,-6.713866710662842,-0.03051757626235485,60.0,421.0,1.0,Rest
301503.15625,290373.65625,688852.625,648115.9375,318007.5,308039.25,320043.125,298926.6875,-0.0634765625,0.9775390625,-0.07666015625,-1.9836424589157104,-6.652831554412842,0.0,60.0,422.0,1.0,Rest
301503.15625,290373.65625,688852.625,648115.9375,318007.5,308039.25,320043.125,298926.6875,-0.0634765625,0.9775390625,-0.07666015625,-1.9836424589157104,-6.652831554412842,0.0,60.0,423.0,0.0,Rest
301503.15625,290373.65625,688852.625,648115.9375,318007.5,308039.25,320043.125,298926.6875,-0.0634765625,0.9775390625,-0.07666015625,-1.9836424589157104,-6.652831554412842,0.0,60.0,424.0,0.0,Rest
301503.15625,290373.65625,688852.625,648115.9375,318007.5,308039.25,320043.125,298926.6875,-0.0634765625,0.9775390625,-0.07666015625,-1.9836424589157104,-6.652831554412842,0.0,60.0,425.0,0.0,Rest
301503.15625,290373.65625,688852.625,648115.9375,318007.5,308039.25,320043.125,298926.6875,-0.0634765625,0.9775390625,-0.07666015625,-1.9836424589157104,-6.652831554412842,0.0,60.0,426.0,0.0,Rest
301503.15625,290373.65625,688852.625,648115.9375,318007.5,308039.25,320043.125,298926.6875,-0.0634765625,0.9775390625,-0.07666015625,-1.9836424589157104,-6.652831554412842,0.0,60.0,427.0,0.0,Rest
301503.15625,290373.65625,688852.625,648115.9375,318007.5,308039.25,320043.125,298926.6875,-0.0634765625,0.9775390625,-0.07666015625,-1.9836424589157104,-6.652831554412842,0.0,60.0,428.0,0.0,Rest
301503.15625,290373.65625,688852.625,648115.9375,318007.5,308039.25,320043.125,298926.6875,-0.0634765625,0.9775390625,-0.07666015625,-1.9836424589157104,-6.652831554412842,0.0,60.0,429.0,0.0,Rest
301503.15625,290373.65625,688852.625,648115.9375,318007.5,308039.25,320043.125,298926.6875,-0.0634765625,0.9775390625,-0.07666015625,-1.9836424589157104,-6.652831554412842,0.0,60.0,430.0,0.0,Rest
301503.15625,290373.65625,688852.625,648115.9375,318007.5,308039.25,320043.125,298926.6875,-0.0634765625,0.9775390625,-0.07666015625,-1.9836424589157104,-6.652831554412842,0.0,60.0,431.0,0.0,Rest
301503.15625,290373.65625,688852.625,648115.9375,318007.5,308039.25,320043.125,298926.6875,-0.0634765625,0.9775390625,-0.07666015625,-1.9836424589157104,-6.652831554412842,0.0,60.0,432.0,0.0,Rest
301503.15625,290373.65625,688852.625,648115.9375,318007.5,308039.25,320043.125,298926.6875,-0.0634765625,0.9775390625,-0.07666015625,-1.9836424589157104,-6.652831554412842,0.0,60.0,433.0,0.0,Rest
301503.15625,290373.65625,688852.625,648115.9375,318007.5,308039.25,320043.125,298926.6875,-0.0634765625,0.9775390625,-0.07666015625,-1.9836424589157104,-6.652831554412842,0.0,60.0,434.0,0.0,Rest
301503.15625,290373.65625,688852.625,648115.9375,318007.5,308039.25,320043.125,298926.6875,-0.0634765625,0.9775390625,-0.07666015625,-1.9836424589157104,-6.652831554412842,0.0,60.0,435.0,0.0,Rest
301503.15625,290373.65625,688852.625,648115.9375,318007.5,308039.25,320043.125,298926.6875,-0.0634765625,0.9775390625,-0.07666015625,-1.9836424589157104,-6.652831554412842,0.0,60.0,436.0,0.0,Rest
301503.15625,290373.65625,688852.625,648115.9375,318007.5,308039.25,320043.125,298926.6875,-0.0634765625,0.9775390625,-0.07666015625,-1.9836424589157104,-6.652831554412842,0.0,60.0,437.0,0.0,Rest
301503.15625,290373.65625,688852.625,648115.9375,318007.5,308039.25,320043.125,298926.6875,-0.0634765625,0.9775390625,-0.07666015625,-1.9836424589157104,-6.652831554412842,0.0,60.0,438.0,0.0,Rest
301503.15625,290373.65625,688852.625,648115.9375,318007.5,308039.25,320043.125,298926.6875,-0.0634765625,0.9775390625,-0.07666015625,-1.9836424589157104,-6.652831554412842,0.0,60.0,439.0,0.0,Rest
301503.15625,290373.65625,688852.625,648115.9375,318007.5,308039.25,320043.125,298926.6875,-0.0634765625,0.9775390625,-0.07666015625,-1.9836424589157104,-6.652831554412842,0.0,60.0,440.0,0.0,Rest
301503.15625,290373.65625,688852.625,648115.9375,318007.5,308039.25,320043.125,298926.6875,-0.0634765625,0.9775390625,-0.07666015625,-1.9836424589157104,-6.652831554412842,0.0,60.0,441.0,0.0,Rest
301503.15625,290373.65625,688852.625,648115.9375,318007.5,308039.25,320043.125,298926.6875,-0.0634765625,0.9775390625,-0.07666015625,-1.9836424589157104,-6.652831554412842,0.0,60.0,442.0,0.0,Rest
301503.15625,290373.65625,688852.625,648115.9375,318007.5,308039.25,320043.125,298926.6875,-0.0634765625,0.9775390625,-0.07666015625,-1.9836424589157104,-6.652831554412842,0.0,60.0,443.0,0.0,Rest
301503.15625,290373.65625,688852.625,648115.9375,318007.5,308039.25,320043.125,298926.6875,-0.0634765625,0.9775390625,-0.07666015625,-1.9836424589157104,-6.652831554412842,0.0,60.0,444.0,0.0,Rest
301503.15625,290373.65625,688852.625,648115.9375,318007.5,308039.25,320043.125,298926.6875,-0.0634765625,0.9775390625,-0.07666015625,-1.9836424589157104,-6.652831554412842,0.0,60.0,445.0,0.0,Rest
301503.15625,290373.65625,688852.625,648115.9375,318007.5,308039.25,320043.125,298926.6875,-0.0634765625,0.9775390625,-0.07666015625,-1.9836424589157104,-6.652831554412842,0.0,60.0,446.0,0.0,Rest
301503.15625,290373.65625,688852.625,648115.9375,318007.5,308039.25,320043.125,298926.6875,-0.0634765625,0.9775390625,-0.07666015625,-1.9836424589157104,-6.652831554412842,0.0,60.0,447.0,0.0,Rest
301503.15625,290373.65625,688852.625,648115.9375,318007.5,308039.25,320043.125,298926.6875,-0.0634765625,0.9775390625,-0.07666015625,-1.9836424589157104,-6.652831554412842,0.0,60.0,448.0,0.0,Rest
301503.15625,290373.65625,688852.625,648115.9375,318007.5,308039.25,320043.125,298926.6875,-0.0634765625,0.9775390625,-0.07666015625,-1.9836424589157104,-6.652831554412842,0.0,60.0,449.0,0.0,Rest
301182.71875,290984.9375,681079.5,644381.0,317293.5625,308274.90625,319698.90625,299072.15625,-0.06396484375,0.9853515625,-0.072265625,-0.6408690810203552,-5.096435070037842,-0.1831054538488388,60.0,450.0,1.0,Rest
301275.875,291052.0,680919.125,644448.375,317325.40625,308314.875,319747.25,299162.5625,-0.064208984375,0.984375,-0.07177734375,-0.7629393935203552,-5.035399913787842,-0.0610351525247097,60.0,451.0,1.0,Rest
301447.625,291220.625,681254.5,644849.3125,317552.5,308394.625,319903.46875,299446.25,-0.0625,0.985595703125,-0.07177734375,-1.0070799589157104,-4.913329601287842,0.2136230319738388,60.0,452.0,1.0,Rest
301458.34375,291292.78125,681282.8125,644878.1875,317638.96875,308418.15625,319939.21875,299540.65625,-0.064208984375,0.984619140625,-0.07421875,-1.1596678495407104,-4.913329601287842,0.3967284858226776,60.0,453.0,1.0,Rest
301307.34375,291218.21875,680708.9375,644405.5625,317466.125,308358.875,319799.9375,299357.90625,-0.06640625,0.982666015625,-0.073974609375,-1.3427733182907104,-4.791259288787842,0.5798339247703552,60.0,454.0,1.0,Rest
301193.875,291146.25,679966.5625,643908.125,317244.6875,308316.59375,319665.46875,299157.71875,-0.069091796875,0.982177734375,-0.072021484375,-1.3427733182907104,-4.730224132537842,0.4577636420726776,60.0,455.0,1.0,Rest
301296.25,291233.78125,679816.625,643990.0625,317280.875,308364.9375,319724.09375,299260.28125,-0.071533203125,0.9833984375,-0.075927734375,-1.2817381620407104,-4.699706554412842,0.3662109076976776,60.0,456.0,1.0,Rest
301456.90625,291393.8125,680151.4375,644386.6875,317500.375,308441.40625,319874.3125,299534.03125,-0.0712890625,0.982421875,-0.07763671875,-1.2512205839157104,-4.760741710662842,0.2441406100988388,60.0,457.0,1.0,Rest
301463.1875,291452.28125,680168.0,644410.3125,317575.9375,308457.75,319904.875,299618.8125,-0.0712890625,0.981201171875,-0.075439453125,-1.2512205839157104,-4.791259288787842,0.1220703050494194,60.0,458.0,1.0,Rest
301319.78125,291382.625,679603.8125,643952.0625,317418.5625,308417.6875,319789.65625,299450.4375,-0.0673828125,0.978759765625,-0.076171875,-1.1596678495407104,-4.730224132537842,0.03051757626235485,60.0,459.0,1.0,Rest
301200.9375,291293.84375,678855.875,643449.0,317194.15625,308382.90625,319663.40625,299247.9375,-0.069580078125,0.979248046875,-0.075439453125,-1.0681151151657104,-4.669188976287842,-0.03051757626235485,60.0,460.0,1.0,Rest
301200.9375,291293.84375,678855.875,643449.0,317194.15625,308382.90625,319663.40625,299247.9375,-0.069580078125,0.979248046875,-0.075439453125,-1.0681151151657104,-4.669188976287842,-0.03051757626235485,60.0,461.0,0.0,Rest
301200.9375,291293.84375,678855.875,643449.0,317194.15625,308382.90625,319663.40625,299247.9375,-0.069580078125,0.979248046875,-0.075439453125,-1.0681151151657104,-4.669188976287842,-0.03051757626235485,60.0,462.0,0.0,Rest
301200.9375,291293.84375,678855.875,643449.0,317194.15625,308382.90625,319663.40625,299247.9375,-0.069580078125,0.979248046875,-0.075439453125,-1.0681151151657104,-4.669188976287842,-0.03051757626235485,60.0,463.0,0.0,Rest
301200.9375,291293.84375,678855.875,643449.0,317194.15625,308382.90625,319663.40625,299247.9375,-0.069580078125,0.979248046875,-0.075439453125,-1.0681151151657104,-4.669188976287842,-0.03051757626235485,60.0,464.0,0.0,Rest
301200.9375,291293.84375,678855.875,643449.0,317194.15625,308382.90625,319663.40625,299247.9375,-0.069580078125,0.979248046875,-0.075439453125,-1.0681151151657104,-4.669188976287842,-0.03051757626235485,60.0,465.0,0.0,Rest
301200.9375,291293.84375,678855.875,643449.0,317194.15625,308382.90625,319663.40625,299247.9375,-0.069580078125,0.979248046875,-0.075439453125,-1.0681151151657104,-4.669188976287842,-0.03051757626235485,60.0,466.0,0.0,Rest
301200.9375,291293.84375,678855.875,643449.0,317194.15625,308382.90625,319663.40625,299247.9375,-0.069580078125,0.979248046875,-0.075439453125,-1.0681151151657104,-4.669188976287842,-0.03051757626235485,60.0,467.0,0.0,Rest
301200.9375,291293.84375,678855.875,643449.0,317194.15625,308382.90625,319663.40625,299247.9375,-0.069580078125,0.979248046875,-0.075439453125,-1.0681151151657104,-4.669188976287842,-0.03051757626235485,60.0,468.0,0.0,Rest
301200.9375,291293.84375,678855.875,643449.0,317194.15625,308382.90625,319663.40625,299247.9375,-0.069580078125,0.979248046875,-0.075439453125,-1.0681151151657104,-4.669188976287842,-0.03051757626235485,60.0,469.0,0.0,Rest
301200.9375,291293.84375,678855.875,643449.0,317194.15625,308382.90625,319663.40625,299247.9375,-0.069580078125,0.979248046875,-0.075439453125,-1.0681151151657104,-4.669188976287842,-0.03051757626235485,60.0,470.0,0.0,Rest
301200.9375,291293.84375,678855.875,643449.0,317194.15625,308382.90625,319663.40625,299247.9375,-0.069580078125,0.979248046875,-0.075439453125,-1.0681151151657104,-4.669188976287842,-0.03051757626235485,60.0,471.0,0.0,Rest
301200.9375,291293.84375,678855.875,643449.0,317194.15625,308382.90625,319663.40625,299247.9375,-0.069580078125,0.979248046875,-0.075439453125,-1.0681151151657104,-4.669188976287842,-0.03051757626235485,60.0,472.0,0.0,Rest
301200.9375,291293.84375,678855.875,643449.0,317194.15625,308382.90625,319663.40625,299247.9375,-0.069580078125,0.979248046875,-0.075439453125,-1.0681151151657104,-4.669188976287842,-0.03051757626235485,60.0,473.0,0.0,Rest
301200.9375,291293.84375,678855.875,643449.0,317194.15625,308382.90625,319663.40625,299247.9375,-0.069580078125,0.979248046875,-0.075439453125,-1.0681151151657104,-4.669188976287842,-0.03051757626235485,60.0,474.0,0.0,Rest
301200.9375,291293.84375,678855.875,643449.0,317194.15625,308382.90625,319663.40625,299247.9375,-0.069580078125,0.979248046875,-0.075439453125,-1.0681151151657104,-4.669188976287842,-0.03051757626235485,60.0,475.0,0.0,Rest
301200.9375,291293.84375,678855.875,643449.0,317194.15625,308382.90625,319663.40625,299247.9375,-0.069580078125,0.979248046875,-0.075439453125,-1.0681151151657104,-4.669188976287842,-0.03051757626235485,60.0,476.0,0.0,Rest
301200.9375,291293.84375,678855.875,643449.0,317194.15625,308382.90625,319663.40625,299247.9375,-0.069580078125,0.979248046875,-0.075439453125,-1.0681151151657104,-4.669188976287842,-0.03051757626235485,60.0,477.0,0.0,Rest
301200.9375,291293.84375,678855.875,643449.0,317194.15625,308382.90625,319663.40625,299247.9375,-0.069580078125,0.979248046875,-0.075439453125,-1.0681151151657104,-4.669188976287842,-0.03051757626235485,60.0,478.0,0.0,Rest
301200.9375,291293.84375,678855.875,643449.0,317194.15625,308382.90625,319663.40625,299247.9375,-0.069580078125,0.979248046875,-0.075439453125,-1.0681151151657104,-4.669188976287842,-0.03051757626235485,60.0,479.0,0.0,Rest
301200.9375,291293.84375,678855.875,643449.0,317194.15625,308382.90625,319663.40625,299247.9375,-0.069580078125,0.979248046875,-0.075439453125,-1.0681151151657104,-4.669188976287842,-0.03051757626235485,60.0,480.0,0.0,Rest
301306.1875,291875.625,674144.5625,641698.9375,317000.15625,308638.09375,319655.8125,299666.8125,-0.056396484375,0.97802734375,-0.078125,-1.4648436307907104,0.2441406100988388,0.8850097060203552,60.0,481.0,1.0,Rest
301471.03125,292035.75,674475.5625,642102.5,317228.03125,308714.8125,319813.96875,299942.375,-0.056640625,0.97705078125,-0.078125,-1.5563963651657104,0.4882812201976776,0.8544921278953552,60.0,482.0,1.0,Rest
301484.53125,292098.78125,674494.75,642139.625,317312.53125,308738.5,319857.9375,300039.46875,-0.056640625,0.978759765625,-0.074951171875,-1.5563963651657104,0.7324218153953552,0.8239745497703552,60.0,483.0,1.0,Rest
301346.9375,292032.8125,673928.625,641693.3125,317153.03125,308698.34375,319750.03125,299879.25,-0.0576171875,0.9775390625,-0.0732421875,-1.7089842557907104,0.9765624403953552,0.8544921278953552,60.0,484.0,1.0,Rest
301215.78125,291938.03125,673161.5,641183.0625,316910.5625,308635.6875,319601.625,299655.90625,-0.057861328125,0.9775390625,-0.074951171875,-1.7395018339157104,1.2817381620407104,0.8544921278953552,60.0,485.0,1.0,Rest
301300.90625,292001.9375,672991.5625,641250.125,316925.03125,308665.96875,319642.65625,299740.9375,-0.06396484375,0.979736328125,-0.0712890625,-1.7700194120407104,1.4038084745407104,0.6713866591453552,60.0,486.0,1.0,Rest
301464.78125,292155.46875,673318.25,641653.875,317141.21875,308742.96875,319793.84375,300015.0625,-0.066650390625,0.980224609375,-0.070556640625,-1.9226073026657104,1.4648436307907104,0.5798339247703552,60.0,487.0,1.0,Rest
301479.53125,292222.6875,673346.0,641705.5,317236.0,308778.1875,319840.78125,300116.96875,-0.066650390625,0.979248046875,-0.06787109375,-2.075195074081421,1.5258787870407104,0.3051757514476776,60.0,488.0,1.0,Rest
301335.15625,292147.96875,672772.0,641255.5,317079.0,308739.65625,319724.65625,299951.40625,-0.06494140625,0.979736328125,-0.069091796875,-2.258300542831421,1.6784666776657104,0.0915527269244194,60.0,489.0,1.0,Rest
301206.3125,292046.03125,672000.125,640745.75,316843.875,308695.5625,319587.5,299738.78125,-0.063720703125,0.97607421875,-0.07080078125,-2.197265386581421,1.7700194120407104,0.0,60.0,490.0,1.0,Rest
301302.78125,292113.875,671833.0,640818.0,316876.125,308743.0625,319643.71875,299833.28125,-0.062255859375,0.9736328125,-0.072998046875,-2.044677495956421,1.8920897245407104,-0.1220703050494194,60.0,491.0,1.0,Rest
301466.75,292264.4375,672156.25,641220.4375,317106.71875,308822.96875,319795.71875,300104.09375,-0.06201171875,0.97216796875,-0.07275390625,-1.8920897245407104,1.8920897245407104,-0.1831054538488388,60.0,492.0,1.0,Rest
301470.0625,292313.96875,672168.1875,641253.3125,317194.25,308836.75,319820.65625,300184.3125,-0.061767578125,0.976806640625,-0.07421875,-1.8005369901657104,1.9226073026657104,-0.2136230319738388,60.0,493.0,1.0,Rest
301334.875,292247.65625,671599.25,640806.75,317041.90625,308791.5,319699.78125,300014.96875,-0.061767578125,0.976318359375,-0.07373046875,-1.6784666776657104,2.014159917831421,-0.2746581733226776,60.0,494.0,1.0,Rest
301224.5625,292173.0,670853.5625,640315.625,316823.75,308755.03125,319577.3125,299814.6875,-0.061279296875,0.980224609375,-0.074462890625,-1.5563963651657104,2.075195074081421,-0.3967284858226776,60.0,495.0,1.0,Rest
301309.9375,292232.53125,670691.0625,640382.875,316837.78125,308787.03125,319624.875,299895.4375,-0.06298828125,0.980712890625,-0.075439453125,-1.6174315214157104,2.075195074081421,-0.5493163466453552,60.0,496.0,1.0,Rest
301473.71875,292386.59375,671023.8125,640784.9375,317047.4375,308859.46875,319775.96875,300162.40625,-0.062255859375,0.98291015625,-0.07373046875,-1.5258787870407104,2.258300542831421,-0.7629393935203552,60.0,497.0,1.0,Rest
301489.375,292446.46875,671052.0625,640822.5625,317123.71875,308879.5625,319811.625,300249.65625,-0.063232421875,0.98486328125,-0.072509765625,-1.5258787870407104,2.258300542831421,-0.8544921278953552,60.0,498.0,1.0,Rest
301349.71875,292370.75,670490.4375,640367.875,316960.71875,308836.75,319690.40625,300075.03125,-0.063720703125,0.986572265625,-0.069091796875,-1.4648436307907104,2.593993902206421,-0.9460448622703552,60.0,499.0,1.0,Rest
301224.46875,292273.125,669726.0,639858.75,316726.28125,308789.90625,319551.1875,299861.0,-0.063232421875,0.988525390625,-0.068359375,-1.3732908964157104,2.868652105331421,-0.8239745497703552,60.0,500.0,1.0,Rest
301311.1875,292334.8125,669558.6875,639925.0,316752.3125,308828.71875,319601.34375,299948.1875,-0.062744140625,0.989990234375,-0.066162109375,-1.4038084745407104,3.051757574081421,-0.9155272841453552,60.0,501.0,1.0,Rest
301471.03125,292489.125,669890.125,640326.625,316974.40625,308902.90625,319753.625,300222.3125,-0.064453125,0.988525390625,-0.064453125,-1.4648436307907104,3.173827886581421,-0.9765624403953552,60.0,502.0,1.0,Rest
301474.0,292539.75,669906.25,640361.5,317051.8125,308918.125,319784.71875,300307.6875,-0.06640625,0.991455078125,-0.066650390625,-1.5869139432907104,3.204345464706421,-1.1901854276657104,60.0,503.0,1.0,Rest
301326.65625,292460.15625,669330.6875,639904.375,316885.875,308872.4375,319663.84375,300131.0,-0.06396484375,0.99072265625,-0.06494140625,-1.7700194120407104,3.143310308456421,-1.3122557401657104,60.0,504.0,1.0,Rest
301208.1875,292366.46875,668567.0,639401.1875,316657.09375,308837.28125,319536.96875,299923.59375,-0.061767578125,0.98876953125,-0.064453125,-1.8310545682907104,3.082275152206421,-1.4648436307907104,60.0,505.0,1.0,Rest
301294.65625,292431.03125,668400.0,639473.9375,316684.8125,308886.0,319596.875,300016.21875,-0.064208984375,0.98974609375,-0.0625,-1.8920897245407104,3.051757574081421,-1.6174315214157104,60.0,506.0,1.0,Rest
301455.03125,292582.65625,668725.875,639875.125,316897.59375,308962.46875,319749.5,300283.4375,-0.063232421875,0.98876953125,-0.064208984375,-2.044677495956421,3.112792730331421,-1.5563963651657104,60.0,507.0,1.0,Rest
301460.9375,292631.1875,668746.25,639912.0625,316967.78125,308980.53125,319779.4375,300364.1875,-0.064208984375,0.988037109375,-0.063720703125,-2.166747808456421,3.051757574081421,-1.6174315214157104,60.0,508.0,1.0,Rest
301314.3125,292545.375,668167.1875,639461.8125,316797.71875,308928.40625,319650.78125,300184.375,-0.06396484375,0.984130859375,-0.06396484375,-2.258300542831421,2.960204839706421,-1.6174315214157104,60.0,509.0,1.0,Rest
301187.34375,292449.0,667394.875,638955.5,316567.25,308880.75,319512.75,299971.25,-0.06640625,0.9814453125,-0.062255859375,-2.410888433456421,2.929687261581421,-1.3732908964157104,60.0,510.0,1.0,Rest
301269.625,292505.3125,667204.875,639014.4375,316589.0625,308911.9375,319557.4375,300051.09375,-0.06787109375,0.978759765625,-0.061767578125,-2.441406011581421,2.899169683456421,-1.3427733182907104,60.0,511.0,1.0,Rest
301434.9375,292664.0,667525.6875,639417.375,316819.8125,308986.875,319715.0,300322.15625,-0.069580078125,0.97607421875,-0.05908203125,-2.532958745956421,2.624511480331421,-1.3427733182907104,60.0,512.0,1.0,Rest
301450.9375,292730.34375,667557.75,639463.125,316912.78125,309008.5,319756.75,300418.1875,-0.0693359375,0.969482421875,-0.060546875,-2.502441167831421,2.532958745956421,-1.2512205839157104,60.0,513.0,1.0,Rest
301313.78125,292662.40625,666997.4375,639017.6875,316757.03125,308965.3125,319638.09375,300245.8125,-0.069091796875,0.967041015625,-0.065185546875,-2.227782964706421,2.410888433456421,-1.3122557401657104,60.0,514.0,1.0,Rest
301186.5625,292564.21875,666235.1875,638508.25,316524.15625,308912.5625,319494.78125,300026.84375,-0.07177734375,0.965576171875,-0.0693359375,-1.7700194120407104,2.319335699081421,-1.4953612089157104,60.0,515.0,1.0,Rest
301281.0625,292637.53125,666078.375,638581.75,316560.09375,308957.09375,319553.96875,300121.28125,-0.07470703125,0.96484375,-0.072021484375,-1.3122557401657104,2.258300542831421,-1.6174315214157104,60.0,516.0,1.0,Rest
301439.03125,292785.25,666401.4375,638983.375,316780.90625,309031.125,319703.375,300389.65625,-0.073486328125,0.96240234375,-0.070068359375,-0.7324218153953552,2.105712652206421,-1.7700194120407104,60.0,517.0,1.0,Rest
301447.09375,292837.1875,666421.5625,639021.0,316859.78125,309045.34375,319731.0,300469.0625,-0.0732421875,0.964599609375,-0.0712890625,-0.3051757514476776,1.9836424589157104,-1.8310545682907104,60.0,518.0,1.0,Rest
301300.71875,292753.96875,665850.375,638566.9375,316689.90625,308996.15625,319608.3125,300287.75,-0.075439453125,0.96533203125,-0.071044921875,0.2136230319738388,1.7089842557907104,-1.9531248807907104,60.0,519.0,1.0,Rest
301180.65625,292656.15625,665089.25,638062.5625,316454.75,308950.21875,319477.53125,300072.375,-0.076171875,0.96826171875,-0.06982421875,0.6713866591453552,1.4953612089157104,-1.9226073026657104,60.0,520.0,1.0,Rest
301280.78125,292722.5625,664933.5,638138.9375,316487.5625,308993.5625,319535.0,300159.34375,-0.0771484375,0.972412109375,-0.068115234375,0.9765624403953552,1.2817381620407104,-2.044677495956421,60.0,521.0,1.0,Rest
301447.34375,292876.4375,665272.8125,638547.4375,316711.53125,309069.3125,319687.4375,300426.78125,-0.076416015625,0.9765625,-0.068359375,1.3122557401657104,1.1901854276657104,-2.105712652206421,60.0,522.0,1.0,Rest
301456.65625,292930.53125,665301.75,638593.5625,316793.25,309088.96875,319721.34375,300516.90625,-0.07568359375,0.9794921875,-0.066162109375,1.3122557401657104,1.0681151151657104,-2.197265386581421,60.0,523.0,1.0,Rest
301319.78125,292858.1875,664741.0,638149.375,316630.0,309046.40625,319602.5,300342.5625,-0.074951171875,0.981689453125,-0.067138671875,1.2817381620407104,0.8850097060203552,-2.136230230331421,60.0,524.0,1.0,Rest
301196.75,292759.21875,663986.5625,637640.875,316389.75,308994.65625,319459.1875,300118.5,-0.07421875,0.984619140625,-0.066162109375,1.1901854276657104,0.8850097060203552,-2.197265386581421,60.0,525.0,1.0,Rest
301281.59375,292815.09375,663826.125,637705.9375,316407.5625,309024.59375,319503.53125,300195.03125,-0.072509765625,0.985595703125,-0.069091796875,1.1901854276657104,0.7934569716453552,-2.075195074081421,60.0,526.0,1.0,Rest
301444.75,292975.25,664167.8125,638119.8125,316634.1875,309102.75,319661.625,300470.21875,-0.073486328125,0.98681640625,-0.070556640625,1.1596678495407104,0.8239745497703552,-2.044677495956421,60.0,527.0,1.0,Rest
301452.53125,293029.3125,664198.125,638164.25,316723.59375,309118.90625,319697.28125,300559.8125,-0.076171875,0.9873046875,-0.068359375,1.0070799589157104,0.7019042372703552,-1.8920897245407104,60.0,528.0,1.0,Rest
301315.125,292955.21875,663641.125,637723.125,316579.03125,309078.875,319582.5,300390.125,-0.07568359375,0.987060546875,-0.07177734375,0.7934569716453552,0.5493163466453552,-1.7700194120407104,60.0,529.0,1.0,Rest
301194.5,292860.0,662884.3125,637226.4375,316359.625,309040.40625,319451.3125,300179.03125,-0.077392578125,0.983154296875,-0.072509765625,0.8239745497703552,0.4272460639476776,-1.6174315214157104,60.0,530.0,1.0,Rest
301273.28125,292911.40625,662709.75,637290.3125,316376.96875,309069.3125,319494.40625,300255.125,-0.077880859375,0.97998046875,-0.072998046875,0.6713866591453552,0.3662109076976776,-1.6174315214157104,60.0,531.0,1.0,Rest
301435.8125,293066.625,663056.5,637713.875,316602.09375,309145.46875,319655.96875,300529.15625,-0.07763671875,0.980712890625,-0.07470703125,0.8544921278953552,0.2746581733226776,-1.5869139432907104,60.0,532.0,1.0,Rest
301441.625,293120.53125,663091.5625,637764.0625,316677.125,309155.21875,319688.0,300608.90625,-0.07763671875,0.97900390625,-0.074951171875,0.8850097060203552,0.2441406100988388,-1.6174315214157104,60.0,533.0,1.0,Rest
301299.28125,293043.09375,662530.875,637317.375,316504.5625,309103.53125,319564.4375,300432.59375,-0.078369140625,0.978271484375,-0.07763671875,0.8239745497703552,0.0915527269244194,-1.5258787870407104,60.0,534.0,1.0,Rest
301182.625,292950.8125,661784.125,636822.9375,316274.59375,309065.4375,319436.21875,300224.0,-0.077392578125,0.9794921875,-0.078369140625,0.8850097060203552,-0.03051757626235485,-1.5258787870407104,60.0,535.0,1.0,Rest
301268.375,293007.96875,661623.5,636889.75,316294.28125,309101.75,319487.90625,300299.375,-0.078125,0.977783203125,-0.0771484375,0.8850097060203552,-0.0915527269244194,-1.4953612089157104,60.0,536.0,1.0,Rest
301432.78125,293158.34375,661970.4375,637297.0625,316511.53125,309173.625,319634.15625,300558.90625,-0.076416015625,0.976806640625,-0.081298828125,0.9460448622703552,-0.1831054538488388,-1.5869139432907104,60.0,537.0,1.0,Rest
301436.71875,293203.3125,662011.3125,637339.25,316592.71875,309188.84375,319666.0,300639.375,-0.073974609375,0.974853515625,-0.078125,0.9155272841453552,-0.2746581733226776,-1.5869139432907104,60.0,538.0,1.0,Rest
301297.875,293122.9375,661459.5625,636896.6875,316440.1875,309148.0625,319550.75,300467.28125,-0.073486328125,0.973388671875,-0.078125,1.0070799589157104,-0.2746581733226776,-1.5869139432907104,60.0,539.0,1.0,Rest
301175.03125,293025.9375,660715.0,636395.4375,316220.5,309104.34375,319416.375,300251.71875,-0.071533203125,0.97314453125,-0.080078125,1.0681151151657104,-0.3051757514476776,-1.4038084745407104,60.0,540.0,1.0,Rest
301175.03125,293025.9375,660715.0,636395.4375,316220.5,309104.34375,319416.375,300251.71875,-0.071533203125,0.97314453125,-0.080078125,1.0681151151657104,-0.3051757514476776,-1.4038084745407104,60.0,541.0,0.0,Rest
301175.03125,293025.9375,660715.0,636395.4375,316220.5,309104.34375,319416.375,300251.71875,-0.071533203125,0.97314453125,-0.080078125,1.0681151151657104,-0.3051757514476776,-1.4038084745407104,60.0,542.0,0.0,Rest
301175.03125,293025.9375,660715.0,636395.4375,316220.5,309104.34375,319416.375,300251.71875,-0.071533203125,0.97314453125,-0.080078125,1.0681151151657104,-0.3051757514476776,-1.4038084745407104,60.0,543.0,0.0,Rest
301175.03125,293025.9375,660715.0,636395.4375,316220.5,309104.34375,319416.375,300251.71875,-0.071533203125,0.97314453125,-0.080078125,1.0681151151657104,-0.3051757514476776,-1.4038084745407104,60.0,544.0,0.0,Rest
301175.03125,293025.9375,660715.0,636395.4375,316220.5,309104.34375,319416.375,300251.71875,-0.071533203125,0.97314453125,-0.080078125,1.0681151151657104,-0.3051757514476776,-1.4038084745407104,60.0,545.0,0.0,Rest
301175.03125,293025.9375,660715.0,636395.4375,316220.5,309104.34375,319416.375,300251.71875,-0.071533203125,0.97314453125,-0.080078125,1.0681151151657104,-0.3051757514476776,-1.4038084745407104,60.0,546.0,0.0,Rest
301175.03125,293025.9375,660715.0,636395.4375,316220.5,309104.34375,319416.375,300251.71875,-0.071533203125,0.97314453125,-0.080078125,1.0681151151657104,-0.3051757514476776,-1.4038084745407104,60.0,547.0,0.0,Rest
301175.03125,293025.9375,660715.0,636395.4375,316220.5,309104.34375,319416.375,300251.71875,-0.071533203125,0.97314453125,-0.080078125,1.0681151151657104,-0.3051757514476776,-1.4038084745407104,60.0,548.0,0.0,Rest
301175.03125,293025.9375,660715.0,636395.4375,316220.5,309104.34375,319416.375,300251.71875,-0.071533203125,0.97314453125,-0.080078125,1.0681151151657104,-0.3051757514476776,-1.4038084745407104,60.0,549.0,0.0,Rest
301175.03125,293025.9375,660715.0,636395.4375,316220.5,309104.34375,319416.375,300251.71875,-0.071533203125,0.97314453125,-0.080078125,1.0681151151657104,-0.3051757514476776,-1.4038084745407104,60.0,550.0,0.0,Rest
301175.03125,293025.9375,660715.0,636395.4375,316220.5,309104.34375,319416.375,300251.71875,-0.071533203125,0.97314453125,-0.080078125,1.0681151151657104,-0.3051757514476776,-1.4038084745407104,60.0,551.0,0.0,Rest
301175.03125,293025.9375,660715.0,636395.4375,316220.5,309104.34375,319416.375,300251.71875,-0.071533203125,0.97314453125,-0.080078125,1.0681151151657104,-0.3051757514476776,-1.4038084745407104,60.0,552.0,0.0,Rest
301175.03125,293025.9375,660715.0,636395.4375,316220.5,309104.34375,319416.375,300251.71875,-0.071533203125,0.97314453125,-0.080078125,1.0681151151657104,-0.3051757514476776,-1.4038084745407104,60.0,553.0,0.0,Rest
301175.03125,293025.9375,660715.0,636395.4375,316220.5,309104.34375,319416.375,300251.71875,-0.071533203125,0.97314453125,-0.080078125,1.0681151151657104,-0.3051757514476776,-1.4038084745407104,60.0,554.0,0.0,Rest
301175.03125,293025.9375,660715.0,636395.4375,316220.5,309104.34375,319416.375,300251.71875,-0.071533203125,0.97314453125,-0.080078125,1.0681151151657104,-0.3051757514476776,-1.4038084745407104,60.0,555.0,0.0,Rest
301175.03125,293025.9375,660715.0,636395.4375,316220.5,309104.34375,319416.375,300251.71875,-0.071533203125,0.97314453125,-0.080078125,1.0681151151657104,-0.3051757514476776,-1.4038084745407104,60.0,556.0,0.0,Rest
301175.03125,293025.9375,660715.0,636395.4375,316220.5,309104.34375,319416.375,300251.71875,-0.071533203125,0.97314453125,-0.080078125,1.0681151151657104,-0.3051757514476776,-1.4038084745407104,60.0,557.0,0.0,Rest
301175.03125,293025.9375,660715.0,636395.4375,316220.5,309104.34375,319416.375,300251.71875,-0.071533203125,0.97314453125,-0.080078125,1.0681151151657104,-0.3051757514476776,-1.4038084745407104,60.0,558.0,0.0,Rest
