EEG 1,EEG 2,EEG 3,EEG 4,EEG 5,EEG 6,EEG 7,EEG 8,Accelerometer X,Accelerometer Y,Accelerometer Z,Gyroscope X,Gyroscope Y,Gyroscope Z,Battery Level,Counter,Validation Indicator,State
-290747.03125,178846.0625,725143.75,659488.0625,109298.9609375,556883.4375,520723.96875,525239.75,0.005615234375,0.982421875,0.03955078125,0.0,0.0,0.0,66.66667175292969,1.0,1.0,Rest
505230.71875,750000.0625,750000.0625,750000.0625,692060.0,750000.0625,750000.0625,750000.0625,0.000732421875,0.988525390625,0.030029296875,0.0,0.0,0.0,66.66667175292969,2.0,1.0,Rest
721369.5,750000.0625,750000.0625,750000.0625,363022.375,516974.6875,750000.0625,750000.0625,0.001708984375,0.9892578125,0.027099609375,0.0,0.0,0.0,66.66667175292969,3.0,1.0,Rest
707484.5,750000.0625,573599.375,750000.0625,-40049.140625,501301.625,750000.0625,750000.0625,0.0029296875,0.986083984375,0.0283203125,0.0,0.0,0.0,66.66667175292969,4.0,1.0,Rest
731322.5,750000.0625,625938.4375,741677.5625,28622.662109375,353856.21875,354775.3125,719970.0,0.004638671875,0.98388671875,0.028564453125,0.0,0.0,0.0,66.66667175292969,5.0,1.0,Rest
489989.59375,608037.375,750000.0625,750000.0625,5426.0205078125,27309.005859375,-59802.453125,122843.8515625,0.0087890625,0.9853515625,0.025634765625,-0.1831054538488388,-0.0915527269244194,-0.3356933295726776,66.66667175292969,6.0,1.0,Rest
-400408.28125,269438.03125,750000.0625,750000.0625,-638.4552612304688,-57829.6875,-922.6800537109375,252.6641387939453,0.0126953125,0.985107421875,0.0244140625,-3.753661870956421,-0.1525878757238388,-1.6479490995407104,66.66667175292969,7.0,1.0,Rest
-550908.9375,-118424.734375,750000.0625,750000.0625,-178756.5625,-626185.6875,0.0,0.0,0.012939453125,0.98681640625,0.02392578125,-4.211425304412842,0.7629393935203552,0.5798339247703552,66.66667175292969,8.0,1.0,Rest
-690946.75,-750000.125,750000.0625,750000.0625,-750000.125,-750000.125,-465.4527587890625,0.0,0.013427734375,0.988037109375,0.022216796875,-4.333495616912842,1.1901854276657104,1.2207030057907104,66.66667175292969,9.0,1.0,Rest
-750000.125,-750000.125,750000.0625,750000.0625,-750000.125,-618956.125,-193937.609375,0.0,0.0166015625,0.98974609375,0.024169921875,-4.455565929412842,1.4343260526657104,1.5258787870407104,66.66667175292969,10.0,1.0,Rest
-750000.125,-750000.125,750000.0625,750000.0625,-750000.125,-715608.8125,-750000.125,-23958.2109375,0.01611328125,0.99072265625,0.02392578125,-4.455565929412842,1.5869139432907104,1.6174315214157104,66.66667175292969,11.0,1.0,Rest
-750000.125,-750000.125,750000.0625,750000.0625,-750000.125,-719036.0625,-750000.125,-414159.59375,0.01513671875,0.991943359375,0.02392578125,-4.425048351287842,1.8005369901657104,1.6784666776657104,66.66667175292969,12.0,1.0,Rest
-636537.125,-586778.5,750000.0625,750000.0625,-750000.125,-721361.125,-748037.0,-748247.125,0.016357421875,0.993896484375,0.024169921875,-4.547118663787842,1.8920897245407104,1.6479490995407104,66.66667175292969,13.0,1.0,Rest
-454961.375,-395038.65625,750000.0625,750000.0625,-750000.125,-750000.125,-750000.125,-750000.125,0.015380859375,0.993408203125,0.02490234375,-4.821776866912842,2.197265386581421,1.5258787870407104,66.66667175292969,14.0,1.0,Rest
-331890.25,-267406.09375,750000.0625,750000.0625,-750000.125,-750000.125,-750000.125,-750000.125,0.01318359375,0.994384765625,0.02294921875,-5.065917491912842,2.288818120956421,1.4038084745407104,66.66667175292969,15.0,1.0,Rest
-244591.9375,-178420.3125,750000.0625,750000.0625,-750000.125,-750000.125,-750000.125,-750000.125,0.017578125,0.996826171875,0.026611328125,-5.310058116912842,2.532958745956421,1.3732908964157104,66.66667175292969,16.0,1.0,Rest
-179524.03125,-114052.1953125,750000.0625,750000.0625,-750000.125,-750000.125,-750000.125,-750000.125,0.019775390625,0.998779296875,0.02490234375,-5.676269054412842,2.655029058456421,1.3427733182907104,66.66667175292969,17.0,1.0,Rest
-130521.0546875,-67158.234375,750000.0625,750000.0625,-750000.125,-750000.125,-750000.125,-750000.125,0.023193359375,0.99462890625,0.026123046875,-5.981444835662842,2.929687261581421,1.3122557401657104,66.66667175292969,18.0,1.0,Rest
-93038.78125,-32542.62109375,750000.0625,750000.0625,-750000.125,-750000.125,-750000.125,-750000.125,0.021728515625,0.990234375,0.025146484375,-6.286620616912842,3.326415777206421,1.2207030057907104,66.66667175292969,19.0,1.0,Rest
-65171.51953125,-8001.1201171875,750000.0625,750000.0625,-750000.125,-750000.125,-750000.125,-750000.125,0.0234375,0.985107421875,0.023193359375,-6.530761241912842,3.601073980331421,1.1291502714157104,66.66667175292969,20.0,1.0,Rest
-45851.65625,10232.71875,750000.0625,750000.0625,-750000.125,-750000.125,-750000.125,-750000.125,0.02490234375,0.984130859375,0.021240234375,-6.500243663787842,3.845214605331421,1.0986326932907104,66.66667175292969,21.0,1.0,Rest
-30985.6875,26070.62890625,750000.0625,750000.0625,-750000.125,-750000.125,-750000.125,-750000.125,0.024658203125,0.981201171875,0.02001953125,-6.469726085662842,4.119872570037842,0.9460448622703552,66.66667175292969,22.0,1.0,Rest
-17384.650390625,40594.34765625,750000.0625,750000.0625,-750000.125,-750000.125,-750000.125,-750000.125,0.02294921875,0.98291015625,0.022705078125,-6.347655773162842,4.455565929412842,0.7934569716453552,66.66667175292969,23.0,1.0,Rest
-5293.876953125,53132.87109375,750000.0625,750000.0625,-750000.125,-750000.125,-750000.125,-750000.125,0.023193359375,0.9833984375,0.0263671875,-6.378173351287842,4.699706554412842,0.6713866591453552,66.66667175292969,24.0,1.0,Rest
5182.9228515625,63658.6640625,750000.0625,750000.0625,-750000.125,-750000.125,-750000.125,-750000.125,0.022705078125,0.984375,0.02783203125,-6.561278820037842,4.852294445037842,0.5187987685203552,66.66667175292969,25.0,1.0,Rest
14444.234375,72903.5234375,750000.0625,750000.0625,-750000.125,-750000.125,-750000.125,-750000.125,0.025146484375,0.98193359375,0.030517578125,-6.683349132537842,5.065917491912842,0.4882812201976776,66.66667175292969,26.0,1.0,Rest
23037.67578125,81574.84375,750000.0625,750000.0625,-750000.125,-750000.125,-750000.125,-750000.125,0.0234375,0.978515625,0.03076171875,-6.805419445037842,5.310058116912842,0.4272460639476776,66.66667175292969,27.0,1.0,Rest
31211.171875,89771.5859375,750000.0625,750000.0625,-750000.125,-750000.125,-750000.125,-750000.125,0.021484375,0.973388671875,0.028076171875,-6.744384288787842,5.432128429412842,0.1525878757238388,66.66667175292969,28.0,1.0,Rest
38549.16015625,96863.078125,750000.0625,750000.0625,-750000.125,-750000.125,-750000.125,-750000.125,0.017333984375,0.968017578125,0.029541015625,-6.652831554412842,5.645751476287842,-0.0915527269244194,66.66667175292969,29.0,1.0,Rest
44879.265625,102722.5390625,750000.0625,750000.0625,-750000.125,-750000.125,-750000.125,-750000.125,0.01220703125,0.966796875,0.026611328125,-6.500243663787842,5.828856945037842,-0.4272460639476776,66.66667175292969,30.0,1.0,Rest
50479.00390625,107873.546875,750000.0625,750000.0625,-732151.125,-750000.125,-750000.125,-750000.125,0.008544921875,0.96923828125,0.029541015625,-6.256103038787842,5.889892101287842,-0.7629393935203552,66.66667175292969,31.0,1.0,Rest
55855.9375,112977.078125,750000.0625,750000.0625,-708317.5,-750000.125,-750000.125,-750000.125,0.00390625,0.970703125,0.032470703125,-6.011962413787842,5.950927257537842,-1.1291502714157104,66.66667175292969,32.0,1.0,Rest
61151.3359375,118037.421875,750000.0625,750000.0625,-685502.9375,-750000.125,-750000.125,-750000.125,-0.0029296875,0.972900390625,0.03857421875,-5.950927257537842,5.767821788787842,-1.6784666776657104,66.66667175292969,33.0,1.0,Rest
65986.1953125,122440.4453125,750000.0625,750000.0625,-664061.0,-750000.125,-750000.125,-750000.125,-0.009521484375,0.978271484375,0.04150390625,-5.981444835662842,5.493163585662842,-2.105712652206421,66.66667175292969,34.0,1.0,Rest
70089.6171875,125924.8203125,750000.0625,750000.0625,-644209.5625,-750000.125,-750000.125,-750000.125,-0.01220703125,0.979248046875,0.042724609375,-6.072997570037842,5.279540538787842,-2.563476324081421,66.66667175292969,35.0,1.0,Rest
73707.3828125,128970.9140625,750000.0625,750000.0625,-625601.8125,-750000.125,-750000.125,-750000.125,-0.010986328125,0.9814453125,0.03857421875,-6.011962413787842,5.004882335662842,-3.021239995956421,66.66667175292969,36.0,1.0,Rest
77301.3671875,132153.53125,750000.0625,750000.0625,-607689.125,-750000.125,-750000.125,-750000.125,-0.011474609375,0.984375,0.037109375,-6.042479991912842,4.760741710662842,-3.326415777206421,66.66667175292969,37.0,1.0,Rest
80995.6640625,135461.953125,750000.0625,750000.0625,-590312.75,-747769.3125,-750000.125,-750000.125,-0.0107421875,0.985107421875,0.038818359375,-6.103515148162842,4.364013195037842,-3.723144292831421,66.66667175292969,38.0,1.0,Rest
84390.1796875,138297.765625,750000.0625,750000.0625,-573873.0,-732462.4375,-750000.125,-750000.125,-0.0078125,0.9873046875,0.037109375,-5.981444835662842,4.119872570037842,-3.906249761581421,66.66667175292969,39.0,1.0,Rest
87227.328125,140434.40625,750000.0625,750000.0625,-558618.0625,-718151.8125,-750000.125,-750000.125,-0.002685546875,0.9873046875,0.03564453125,-5.981444835662842,3.662109136581421,-3.997802495956421,66.66667175292969,40.0,1.0,Rest
89708.375,142281.203125,750000.0625,750000.0625,-544245.75,-704597.3125,-750000.125,-750000.125,-0.003173828125,0.98876953125,0.036376953125,-5.950927257537842,3.448486089706421,-3.997802495956421,66.66667175292969,41.0,1.0,Rest
92252.4453125,144358.84375,750000.0625,750000.0625,-530280.9375,-691471.25,-750000.125,-750000.125,-0.003173828125,0.989501953125,0.035888671875,-5.889892101287842,3.234863042831421,-3.967284917831421,66.66667175292969,42.0,1.0,Rest
94934.2109375,146627.890625,750000.0625,750000.0625,-516635.75,-678744.25,-750000.125,-750000.125,-0.002685546875,0.992431640625,0.041748046875,-5.828856945037842,3.082275152206421,-3.997802495956421,66.66667175292969,43.0,1.0,Rest
97412.84375,148570.078125,750000.0625,750000.0625,-503655.09375,-666642.75,-750000.125,-750000.125,-0.004150390625,0.989990234375,0.041259765625,-5.859374523162842,2.807616949081421,-3.997802495956421,66.66667175292969,44.0,1.0,Rest
99469.2890625,149963.578125,750000.0625,750000.0625,-491550.1875,-655275.75,-750000.125,-750000.125,-0.005126953125,0.9892578125,0.043212890625,-5.950927257537842,2.624511480331421,-3.967284917831421,66.66667175292969,45.0,1.0,Rest
101255.015625,151145.09375,750000.0625,750000.0625,-480109.875,-644475.0,-749020.75,-750000.125,-0.0078125,0.986572265625,0.043212890625,-6.011962413787842,2.471923589706421,-3.967284917831421,66.66667175292969,46.0,1.0,Rest
103137.390625,152590.09375,750000.0625,750000.0625,-468904.46875,-633942.8125,-740005.125,-750000.125,-0.01025390625,0.9853515625,0.043212890625,-5.737304210662842,2.288818120956421,-4.058837413787842,66.66667175292969,47.0,1.0,Rest
105195.2734375,154266.921875,750000.0625,750000.0625,-457839.5625,-623641.125,-731213.5625,-750000.125,-0.01220703125,0.984619140625,0.042236328125,-5.493163585662842,2.014159917831421,-4.180907726287842,66.66667175292969,48.0,1.0,Rest
107138.9765625,155716.125,750000.0625,750000.0625,-447244.65625,-613783.5,-722811.125,-750000.125,-0.013916015625,0.984130859375,0.04296875,-5.279540538787842,1.7089842557907104,-4.211425304412842,66.66667175292969,49.0,1.0,Rest
108682.59375,156661.953125,750000.0625,750000.0625,-437404.96875,-604550.4375,-714957.125,-750000.125,-0.014892578125,0.985595703125,0.04248046875,-5.065917491912842,1.4953612089157104,-4.241942882537842,66.66667175292969,50.0,1.0,Rest
109988.0234375,157438.453125,750000.0625,750000.0625,-428087.6875,-595748.125,-707498.75,-750000.125,-0.01611328125,0.988037109375,0.046630859375,-5.004882335662842,1.1596678495407104,-4.211425304412842,66.66667175292969,51.0,1.0,Rest
111416.390625,158502.671875,750000.0625,750000.0625,-418885.9375,-587104.875,-700216.0,-750000.125,-0.01806640625,0.98828125,0.047607421875,-4.943847179412842,0.8850097060203552,-4.211425304412842,66.66667175292969,52.0,1.0,Rest
113050.125,159829.546875,750000.0625,750000.0625,-409716.15625,-578587.1875,-693070.9375,-750000.125,-0.017333984375,0.987548828125,0.04833984375,-4.913329601287842,0.5798339247703552,-4.333495616912842,66.66667175292969,53.0,1.0,Rest
114595.96875,160940.703125,750000.0625,750000.0625,-400912.0,-570412.6875,-686223.0625,-750000.125,-0.0166015625,0.98974609375,0.049560546875,-4.760741710662842,0.2441406100988388,-4.241942882537842,66.66667175292969,54.0,1.0,Rest
115772.203125,161556.53125,750000.0625,750000.0625,-392752.96875,-562756.9375,-679829.4375,-750000.125,-0.019287109375,0.991455078125,0.05078125,-4.669188976287842,0.0915527269244194,-4.302978038787842,66.66667175292969,55.0,1.0,Rest
116762.2109375,162039.25,750000.0625,750000.0625,-385015.25,-555442.3125,-673741.125,-745353.9375,-0.019775390625,0.993896484375,0.049560546875,-4.608153820037842,-0.2136230319738388,-4.180907726287842,66.66667175292969,56.0,1.0,Rest
117888.2890625,162817.71875,750000.0625,750000.0625,-377320.09375,-548217.625,-667762.0625,-736907.4375,-0.020751953125,0.99560546875,0.051025390625,-4.516601085662842,-0.4882812201976776,-4.211425304412842,66.66667175292969,57.0,1.0,Rest
119242.359375,163884.421875,750000.0625,750000.0625,-369576.8125,-541033.9375,-661839.9375,-728409.4375,-0.021484375,0.997314453125,0.052734375,-4.302978038787842,-0.8239745497703552,-4.058837413787842,66.66667175292969,58.0,1.0,Rest
120515.15625,164764.734375,750000.0625,750000.0625,-362122.40625,-534131.4375,-656158.3125,-720246.4375,-0.024658203125,0.997802734375,0.052001953125,-4.333495616912842,-1.1596678495407104,-3.723144292831421,66.66667175292969,59.0,1.0,Rest
121491.9296875,165246.28125,750000.0625,750000.0625,-355181.40625,-527627.0,-650822.125,-712679.125,-0.026611328125,0.995849609375,0.05078125,-4.333495616912842,-1.5258787870407104,-3.448486089706421,66.66667175292969,60.0,1.0,Rest
122280.0546875,165598.0,750000.0625,750000.0625,-348601.21875,-521397.28125,-645745.6875,-705515.125,-0.028564453125,0.991455078125,0.053955078125,-4.394530773162842,-1.8310545682907104,-3.112792730331421,66.66667175292969,61.0,1.0,Rest
123181.0078125,166216.78125,750000.0625,750000.0625,-342041.6875,-515228.9375,-640758.625,-698361.25,-0.031005859375,0.989501953125,0.0537109375,-4.180907726287842,-2.258300542831421,-2.807616949081421,66.66667175292969,62.0,1.0,Rest
124313.4375,167137.953125,750000.0625,750000.0625,-335385.0,-509050.71875,-635783.0,-691099.5,-0.031982421875,0.990234375,0.05224609375,-4.058837413787842,-2.563476324081421,-2.532958745956421,66.66667175292969,63.0,1.0,Rest
125391.1484375,167907.390625,750000.0625,750000.0625,-328961.625,-503101.5,-630995.75,-684103.5,-0.033447265625,0.989501953125,0.051513671875,-3.845214605331421,-2.990722417831421,-2.288818120956421,66.66667175292969,64.0,1.0,Rest
126148.6953125,168231.75,750000.0625,750000.0625,-323041.375,-497552.09375,-626551.6875,-677683.4375,-0.033935546875,0.990234375,0.052734375,-3.570556402206421,-3.356933355331421,-2.014159917831421,66.66667175292969,65.0,1.0,Rest
126741.640625,168434.703125,750000.0625,750000.0625,-317428.40625,-492231.5625,-622321.6875,-671611.375,-0.03271484375,0.98974609375,0.054931640625,-3.143310308456421,-3.784179449081421,-1.6479490995407104,66.66667175292969,66.0,1.0,Rest
127504.546875,168952.28125,750000.0625,750000.0625,-311745.0625,-486885.65625,-618093.625,-665456.625,-0.031982421875,0.991455078125,0.056396484375,-2.990722417831421,-4.119872570037842,-1.3427733182907104,66.66667175292969,67.0,1.0,Rest
128495.1796875,169747.5625,750000.0625,750000.0625,-305939.4375,-481514.34375,-613853.25,-659162.5625,-0.031005859375,0.995361328125,0.0556640625,-2.807616949081421,-4.486083507537842,-1.0681151151657104,66.66667175292969,68.0,1.0,Rest
129447.453125,170400.3125,750000.0625,750000.0625,-300311.4375,-476318.75,-609759.375,-653074.9375,-0.029052734375,0.998046875,0.05419921875,-2.624511480331421,-4.821776866912842,-0.7629393935203552,66.66667175292969,69.0,1.0,Rest
130094.578125,170641.265625,750000.0625,750000.0625,-295139.34375,-471475.84375,-605968.25,-647505.375,-0.02783203125,1.001953125,0.0556640625,-2.685546636581421,-5.035399913787842,-0.3662109076976776,66.66667175292969,70.0,1.0,Rest
130579.2578125,170767.421875,750000.0625,750000.0625,-290243.5,-466834.34375,-602368.125,-642252.9375,-0.02392578125,1.005126953125,0.0556640625,-2.655029058456421,-5.401610851287842,0.0915527269244194,66.66667175292969,71.0,1.0,Rest
131232.015625,171209.09375,750000.0625,750000.0625,-285251.28125,-462141.03125,-598747.5625,-636888.0625,-0.0224609375,1.005126953125,0.05615234375,-2.777099370956421,-5.554198741912842,0.4882812201976776,66.66667175292969,72.0,1.0,Rest
132111.328125,171946.96875,750000.0625,750000.0625,-280106.53125,-457389.75,-595081.4375,-631341.0625,-0.0234375,1.00244140625,0.053466796875,-2.868652105331421,-5.737304210662842,0.8850097060203552,66.66667175292969,73.0,1.0,Rest
132946.65625,172541.796875,750000.0625,750000.0625,-275120.03125,-452793.71875,-591542.0,-625973.9375,-0.023193359375,1.00341796875,0.0517578125,-2.899169683456421,-5.859374523162842,1.1596678495407104,66.66667175292969,74.0,1.0,Rest
133518.0625,172756.734375,750000.0625,750000.0625,-270537.5625,-448501.53125,-588255.3125,-621066.25,-0.022705078125,1.001953125,0.0537109375,-2.899169683456421,-5.981444835662842,1.5563963651657104,66.66667175292969,75.0,1.0,Rest
133914.046875,172830.484375,750000.0625,750000.0625,-266219.03125,-444398.9375,-585144.5625,-616455.0,-0.022216796875,0.999755859375,0.05419921875,-2.807616949081421,-6.317138195037842,1.6784666776657104,66.66667175292969,76.0,1.0,Rest
134453.4375,173191.875,750000.0625,750000.0625,-261807.96875,-440244.375,-582013.0,-611733.375,-0.021240234375,0.99609375,0.0546875,-2.746581792831421,-6.378173351287842,2.014159917831421,66.66667175292969,77.0,1.0,Rest
135250.5,173875.921875,750000.0625,750000.0625,-257205.375,-435986.96875,-578803.0,-606791.125,-0.02099609375,0.994384765625,0.056884765625,-2.746581792831421,-6.500243663787842,2.227782964706421,66.66667175292969,78.0,1.0,Rest
136023.515625,174436.0625,750000.0625,750000.0625,-252721.171875,-431849.59375,-575685.8125,-601985.8125,-0.02001953125,0.9912109375,0.058837890625,-2.716064214706421,-6.561278820037842,2.380370855331421,66.66667175292969,79.0,1.0,Rest
136514.1875,174601.203125,750000.0625,750000.0625,-248627.046875,-428008.375,-572819.4375,-597627.5,-0.017578125,0.988037109375,0.058349609375,-2.655029058456421,-6.713866710662842,2.655029058456421,66.66667175292969,80.0,1.0,Rest
136838.09375,174631.0625,750000.0625,750000.0625,-244778.796875,-424338.84375,-570109.5,-593538.1875,-0.015380859375,0.98779296875,0.054931640625,-2.593993902206421,-6.744384288787842,2.807616949081421,66.66667175292969,81.0,1.0,Rest
137302.390625,174943.0,750000.0625,750000.0625,-240830.765625,-420606.75,-567362.5625,-589318.375,-0.012451171875,0.9853515625,0.053466796875,-2.410888433456421,-6.744384288787842,2.960204839706421,66.66667175292969,82.0,1.0,Rest
138025.6875,175582.078125,750000.0625,750000.0625,-236671.09375,-416752.0625,-564517.125,-584857.3125,-0.01025390625,0.98388671875,0.05078125,-2.136230230331421,-6.713866710662842,3.051757574081421,66.66667175292969,83.0,1.0,Rest
138731.65625,176107.96875,750000.0625,750000.0625,-232614.96875,-413004.90625,-561750.125,-580512.5,-0.007568359375,0.979736328125,0.051513671875,-1.8615721464157104,-6.683349132537842,3.204345464706421,66.66667175292969,84.0,1.0,Rest
139168.859375,176249.59375,750000.0625,748191.5,-228928.71875,-409533.40625,-559212.3125,-576581.4375,-0.004638671875,0.98193359375,0.047607421875,-1.5563963651657104,-6.652831554412842,3.295898199081421,66.66667175292969,85.0,1.0,Rest
139440.5625,176259.96875,750000.0625,745523.0625,-225476.984375,-406221.59375,-556815.0625,-572905.75,-0.00048828125,0.984130859375,0.048095703125,-1.3122557401657104,-6.500243663787842,3.417968511581421,66.66667175292969,86.0,1.0,Rest
139863.0,176560.46875,750000.0625,743123.9375,-221898.203125,-402820.21875,-554361.0,-569079.125,-0.000244140625,0.983154296875,0.052001953125,-1.0986326932907104,-6.378173351287842,3.509521245956421,66.66667175292969,87.0,1.0,Rest
140524.984375,177158.328125,750000.0625,741002.9375,-218110.75,-399303.125,-551815.75,-565014.5,0.001953125,0.985595703125,0.05126953125,-1.0070799589157104,-6.103515148162842,3.509521245956421,66.66667175292969,88.0,1.0,Rest
141170.40625,177639.421875,750000.0625,738910.25,-214408.578125,-395883.46875,-549338.5,-561049.5625,0.00390625,0.98681640625,0.051513671875,-0.7629393935203552,-5.889892101287842,3.601073980331421,66.66667175292969,89.0,1.0,Rest
141568.265625,177757.53125,750000.0625,736675.6875,-211043.296875,-392705.3125,-547055.8125,-557468.0625,0.00830078125,0.986572265625,0.052490234375,-0.7324218153953552,-5.615233898162842,3.479003667831421,66.66667175292969,90.0,1.0,Rest
141814.3125,177750.296875,748809.3125,734407.625,-207892.15625,-389669.875,-544897.9375,-554123.625,0.007568359375,0.987060546875,0.05078125,-0.6713866591453552,-5.249022960662842,3.479003667831421,66.66667175292969,91.0,1.0,Rest
142196.53125,178013.140625,747614.3125,732370.25,-204618.421875,-386554.5625,-542686.1875,-550632.75,0.00634765625,0.98779296875,0.048583984375,-0.6713866591453552,-4.943847179412842,3.387450933456421,66.66667175292969,92.0,1.0,Rest
142834.1875,178596.609375,746470.5,730593.375,-201109.390625,-383295.15625,-540356.25,-546871.75,0.005615234375,0.990234375,0.0517578125,-0.6408690810203552,-4.730224132537842,3.356933355331421,66.66667175292969,93.0,1.0,Rest
143452.25,179080.046875,745369.5,728813.1875,-197678.5625,-380117.09375,-538086.8125,-543192.3125,0.00830078125,0.990478515625,0.048583984375,-0.6408690810203552,-4.516601085662842,3.204345464706421,66.66667175292969,94.0,1.0,Rest
143802.28125,179187.15625,744304.875,726846.6875,-194603.59375,-377197.78125,-536035.0625,-539906.125,0.009033203125,0.990478515625,0.048095703125,-0.6713866591453552,-4.241942882537842,3.112792730331421,66.66667175292969,95.0,1.0,Rest
143994.5,179160.234375,743281.4375,724849.5625,-191733.546875,-374407.5625,-534094.125,-536840.0,0.007568359375,0.99072265625,0.04833984375,-0.6408690810203552,-3.967284917831421,2.929687261581421,66.66667175292969,96.0,1.0,Rest
144328.078125,179406.375,742304.5,723059.625,-188731.515625,-371521.5,-532083.1875,-533612.3125,0.00634765625,0.991943359375,0.047119140625,-0.7934569716453552,-3.753661870956421,2.777099370956421,66.66667175292969,97.0,1.0,Rest
144906.28125,179958.46875,741365.8125,721514.4375,-185503.65625,-368497.75,-529958.0,-530121.875,0.007080078125,0.991455078125,0.05029296875,-1.0375975370407104,-3.540038824081421,2.563476324081421,66.66667175292969,98.0,1.0,Rest
145470.34375,180400.578125,740459.75,719977.375,-182341.703125,-365546.625,-527886.6875,-526707.4375,0.00830078125,0.99169921875,0.050537109375,-1.1901854276657104,-3.234863042831421,2.349853277206421,66.66667175292969,99.0,1.0,Rest
145804.109375,180502.0625,739586.0625,718274.625,-179490.328125,-362818.625,-525989.75,-523643.90625,0.008544921875,0.989990234375,0.04931640625,-1.3732908964157104,-2.929687261581421,2.197265386581421,66.66667175292969,100.0,1.0,Rest
145968.515625,180460.21875,738748.4375,716506.8125,-176852.46875,-360228.5,-524212.53125,-520809.71875,0.00830078125,0.988525390625,0.04931640625,-1.4648436307907104,-2.746581792831421,2.044677495956421,66.66667175292969,101.0,1.0,Rest
146265.4375,180686.0625,737944.3125,714944.8125,-174082.71875,-357545.5,-522366.0,-517815.8125,0.00830078125,0.9833984375,0.04736328125,-1.6174315214157104,-2.685546636581421,1.8615721464157104,66.66667175292969,102.0,1.0,Rest
146815.109375,181226.171875,737172.125,713622.6875,-171070.6875,-354716.46875,-520397.4375,-514545.84375,0.00927734375,0.9814453125,0.044189453125,-1.8310545682907104,-2.441406011581421,1.6784666776657104,66.66667175292969,103.0,1.0,Rest
147365.421875,181669.796875,736426.5625,712288.0625,-168111.140625,-351946.90625,-518469.21875,-511334.4375,0.005859375,0.97705078125,0.0439453125,-1.8920897245407104,-2.288818120956421,1.4648436307907104,66.66667175292969,104.0,1.0,Rest
147657.78125,181739.71875,735706.4375,710771.75,-165476.046875,-349411.59375,-516729.1875,-508484.15625,0.00244140625,0.973876953125,0.043212890625,-1.9226073026657104,-2.044677495956421,1.2512205839157104,66.66667175292969,105.0,1.0,Rest
147786.25,181661.9375,735013.625,709195.6875,-163041.5,-347002.09375,-515098.84375,-505852.53125,0.004638671875,0.97216796875,0.042236328125,-1.7395018339157104,-1.8615721464157104,0.8850097060203552,66.66667175292969,106.0,1.0,Rest
148067.265625,181872.21875,734351.6875,707821.75,-160454.78125,-344480.1875,-513379.90625,-503039.71875,0.00341796875,0.974365234375,0.043701171875,-1.4953612089157104,-1.7089842557907104,0.5187987685203552,66.66667175292969,107.0,1.0,Rest
148598.78125,182400.34375,733709.25,706674.8125,-157620.9375,-341804.78125,-511530.96875,-499942.65625,0.003662109375,0.97802734375,0.0439453125,-1.4648436307907104,-1.5869139432907104,0.2136230319738388,66.66667175292969,108.0,1.0,Rest
149107.515625,182819.3125,733077.875,705513.4375,-154850.84375,-339200.6875,-509736.65625,-496913.46875,0.001708984375,0.976806640625,0.040283203125,-1.4953612089157104,-1.4038084745407104,-0.2441406100988388,66.66667175292969,109.0,1.0,Rest
149379.125,182884.3125,732501.125,704239.8125,-152387.140625,-336805.59375,-508105.0625,-494217.3125,0.004150390625,0.977294921875,0.04248046875,-1.5258787870407104,-1.3122557401657104,-0.5798339247703552,66.66667175292969,110.0,1.0,Rest
149501.34375,182811.0,731936.5,702929.0625,-150113.515625,-334523.375,-506572.28125,-491730.25,0.00537109375,0.97509765625,0.04296875,-1.4648436307907104,-1.2207030057907104,-0.9460448622703552,66.66667175292969,111.0,1.0,Rest
149749.90625,182994.359375,731393.25,701775.8125,-147701.59375,-332138.53125,-504967.59375,-489077.03125,0.005859375,0.97607421875,0.04150390625,-1.5563963651657104,-1.0375975370407104,-1.1291502714157104,66.66667175292969,112.0,1.0,Rest
150240.921875,183493.609375,730868.9375,700824.75,-145051.109375,-329606.875,-503240.6875,-486144.21875,0.006103515625,0.979248046875,0.041015625,-1.5869139432907104,-0.8850097060203552,-1.3732908964157104,66.66667175292969,113.0,1.0,Rest
150721.84375,183895.328125,730358.5625,699842.0,-142451.421875,-327136.3125,-501556.1875,-483263.6875,0.0048828125,0.980224609375,0.040283203125,-1.8005369901657104,-0.7324218153953552,-1.5563963651657104,66.66667175292969,114.0,1.0,Rest
150970.3125,183945.390625,729865.125,698665.75,-140146.25,-324872.53125,-500034.125,-480715.78125,0.003662109375,0.9833984375,0.041748046875,-2.014159917831421,-0.5493163466453552,-1.8005369901657104,66.66667175292969,115.0,1.0,Rest
151057.75,183857.046875,729392.0625,697413.375,-138031.859375,-322727.46875,-498614.78125,-478377.96875,0.004638671875,0.98828125,0.04052734375,-2.227782964706421,-0.5187987685203552,-2.075195074081421,66.66667175292969,116.0,1.0,Rest
151284.03125,184041.234375,728939.875,696337.0625,-135771.75,-320469.40625,-497108.8125,-475862.03125,0.00390625,0.991455078125,0.0400390625,-2.471923589706421,-0.3967284858226776,-2.380370855331421,66.66667175292969,117.0,1.0,Rest
151749.484375,184527.34375,728505.8125,695470.1875,-133264.765625,-318057.03125,-495473.5625,-473059.75,0.003662109375,0.994384765625,0.039306640625,-2.685546636581421,-0.1220703050494194,-2.624511480331421,66.66667175292969,118.0,1.0,Rest
152236.125,184944.25,728083.625,694588.0625,-130781.046875,-315684.78125,-493861.90625,-470287.625,0.004150390625,0.993408203125,0.03955078125,-3.112792730331421,0.0610351525247097,-2.868652105331421,66.66667175292969,119.0,1.0,Rest
152497.46875,185018.8125,727682.25,693513.5,-128577.703125,-313503.875,-492400.625,-467836.15625,0.004638671875,0.9921875,0.037109375,-3.295898199081421,0.2441406100988388,-2.990722417831421,66.66667175292969,120.0,1.0,Rest
152580.078125,184926.359375,727293.0625,692349.6875,-126583.65625,-311452.96875,-491052.75,-465612.0625,0.005615234375,0.988525390625,0.033935546875,-3.723144292831421,0.3967284858226776,-3.143310308456421,66.66667175292969,121.0,1.0,Rest
152780.96875,185087.296875,726918.1875,691354.625,-124456.9296875,-309297.46875,-489626.96875,-463222.40625,0.00537109375,0.98388671875,0.03173828125,-4.150390148162842,0.5493163466453552,-3.204345464706421,66.66667175292969,122.0,1.0,Rest
153235.875,185576.625,726559.9375,690580.5,-122073.34375,-306974.65625,-488060.8125,-460533.9375,0.00634765625,0.980712890625,0.03125,-4.577636241912842,0.7629393935203552,-3.387450933456421,66.66667175292969,123.0,1.0,Rest
153690.15625,185985.75,726211.0,689786.5625,-119720.6875,-304695.40625,-486522.75,-457873.1875,0.00732421875,0.980224609375,0.029541015625,-4.760741710662842,1.0375975370407104,-3.387450933456421,66.66667175292969,124.0,1.0,Rest
153913.046875,186045.46875,725873.75,688804.375,-117654.8515625,-302618.3125,-485137.40625,-455530.1875,0.00439453125,0.982177734375,0.02587890625,-4.913329601287842,1.2207030057907104,-3.570556402206421,66.66667175292969,125.0,1.0,Rest
153978.046875,185960.078125,725551.0,687741.5,-115776.40625,-300653.0625,-483849.84375,-453398.625,0.001708984375,0.98486328125,0.027099609375,-5.065917491912842,1.4038084745407104,-3.723144292831421,66.66667175292969,126.0,1.0,Rest
154166.34375,186121.203125,725237.1875,686836.0,-113769.3984375,-298586.40625,-482493.625,-451108.46875,-0.002197265625,0.988525390625,0.024658203125,-5.187987804412842,1.5258787870407104,-4.028319835662842,66.66667175292969,127.0,1.0,Rest
154593.171875,186587.546875,724938.125,686138.0,-111504.09375,-296351.15625,-481000.09375,-448519.25,-0.00439453125,0.990478515625,0.0244140625,-5.554198741912842,1.7089842557907104,-4.180907726287842,66.66667175292969,128.0,1.0,Rest
155037.515625,186988.4375,724646.5625,685418.9375,-109253.9921875,-294142.4375,-479522.53125,-445944.9375,-0.0048828125,0.992919921875,0.02294921875,-5.828856945037842,1.7700194120407104,-4.669188976287842,66.66667175292969,129.0,1.0,Rest
155259.609375,187049.515625,724365.4375,684512.4375,-107286.5,-292124.53125,-478197.90625,-443687.4375,-0.00830078125,0.994140625,0.022705078125,-6.011962413787842,1.8005369901657104,-4.821776866912842,66.66667175292969,130.0,1.0,Rest
155307.609375,186944.1875,724095.625,683515.375,-105518.7421875,-290227.03125,-476981.78125,-441650.09375,-0.009765625,0.9970703125,0.020263671875,-6.530761241912842,1.7700194120407104,-5.126952648162842,66.66667175292969,131.0,1.0,Rest
155471.953125,187093.5,723835.1875,682672.9375,-103615.6328125,-288223.53125,-475692.4375,-439448.28125,-0.01171875,1.0,0.015625,-6.958007335662842,1.8005369901657104,-5.432128429412842,66.66667175292969,132.0,1.0,Rest
155878.125,187561.71875,723581.5,682034.8125,-101457.34375,-286053.625,-474268.90625,-436944.15625,-0.013916015625,1.001220703125,0.01220703125,-7.171630382537842,1.5869139432907104,-5.615233898162842,66.66667175292969,133.0,1.0,Rest
156297.796875,187967.359375,723338.8125,681386.625,-99303.9765625,-283904.375,-472850.625,-434438.0,-0.013671875,1.003173828125,0.007568359375,-7.720946788787842,1.2817381620407104,-5.706786632537842,66.66667175292969,134.0,1.0,Rest
156499.859375,188047.65625,723106.9375,680554.125,-97418.3828125,-281930.53125,-471576.6875,-432231.09375,-0.012451171875,1.005615234375,0.001220703125,-8.392333030700684,1.0375975370407104,-6.225585460662842,66.66667175292969,135.0,1.0,Rest
156513.890625,187953.0625,722878.0625,679621.25,-95746.1171875,-280080.96875,-470426.375,-430273.59375,-0.01318359375,1.0107421875,-0.0029296875,-8.941649436950684,1.1901854276657104,-6.713866710662842,66.66667175292969,136.0,1.0,Rest
156652.75,188097.984375,722658.6875,678840.9375,-93935.4453125,-278111.25,-469186.84375,-428144.1875,-0.010009765625,1.009033203125,-0.009765625,-9.552000999450684,1.4953612089157104,-7.446288585662842,66.66667175292969,137.0,1.0,Rest
157048.640625,188557.71875,722448.125,678268.375,-91861.0234375,-275957.6875,-467790.375,-425694.96875,-0.01025390625,1.01416015625,-0.012939453125,-9.460448265075684,1.6784666776657104,-8.209227561950684,66.66667175292969,138.0,1.0,Rest
157473.140625,188966.578125,722244.875,677685.5,-89776.765625,-273803.59375,-466393.40625,-423240.5,-0.010498046875,1.020751953125,-0.012939453125,-9.094237327575684,1.9531248807907104,-8.850096702575684,66.66667175292969,139.0,1.0,Rest
157675.5625,189041.5,722049.25,676910.4375,-87954.65625,-271831.65625,-465141.78125,-421084.71875,-0.0126953125,1.0341796875,-0.01123046875,-9.521483421325684,2.563476324081421,-9.582518577575684,66.66667175292969,140.0,1.0,Rest
157708.46875,188950.125,721859.0,676030.5,-86321.0078125,-269968.5,-464000.25,-419145.65625,-0.014404296875,1.04638671875,-0.011474609375,-10.498045921325684,2.258300542831421,-9.796141624450684,66.66667175292969,141.0,1.0,Rest
157848.734375,189102.5625,721674.0,675304.0,-84549.234375,-267968.8125,-462792.90625,-417043.53125,-0.016357421875,1.055908203125,-0.01806640625,-11.932372093200684,1.9531248807907104,-10.162352561950684,66.66667175292969,142.0,1.0,Rest
158220.234375,189571.328125,721497.8125,674785.875,-82521.125,-265751.15625,-461423.96875,-414629.0,-0.011474609375,1.0595703125,-0.024169921875,-13.427733421325684,2.197265386581421,-11.138915061950684,66.66667175292969,143.0,1.0,Rest
158621.9375,189992.78125,721327.6875,674249.8125,-80482.5546875,-263503.3125,-460034.875,-412181.5625,-0.01123046875,1.072265625,-0.0185546875,-13.519286155700684,2.532958745956421,-11.566161155700684,66.66667175292969,144.0,1.0,Rest
158782.515625,190066.1875,721156.625,673495.4375,-78733.21875,-261458.109375,-458767.78125,-410040.8125,-0.01611328125,1.090087890625,-0.0048828125,-14.923094749450684,2.929687261581421,-11.383055686950684,66.66667175292969,145.0,1.0,Rest
158786.4375,189994.671875,720990.3125,672646.375,-77167.703125,-259501.53125,-457559.1875,-408105.3125,-0.0263671875,1.099365234375,-0.003662109375,-18.096921920776367,2.044677495956421,-11.322020530700684,66.66667175292969,146.0,1.0,Rest
158915.453125,190175.625,720835.375,671954.8125,-75453.0546875,-257354.59375,-456295.40625,-405977.4375,-0.015869140625,1.10546875,-0.02001953125,-21.728513717651367,1.2207030057907104,-11.657713890075684,66.66667175292969,147.0,1.0,Rest
159238.84375,190645.71875,720653.1875,671454.5625,-73501.75,-255003.375,-454917.9375,-403542.34375,-0.008544921875,1.107421875,-0.026123046875,-24.230955123901367,1.5869139432907104,-11.810301780700684,66.66667175292969,148.0,1.0,Rest
159580.5625,191058.515625,720235.75,670951.6875,-71532.46875,-252647.953125,-453543.375,-401088.9375,-0.01171875,1.111328125,-0.021484375,-26.611326217651367,2.380370855331421,-11.688231468200684,66.66667175292969,149.0,1.0,Rest
159704.828125,191116.71875,719382.0,670244.1875,-69830.6953125,-250477.765625,-452304.90625,-398934.75,-0.01708984375,1.111572265625,-0.023193359375,-29.205320358276367,2.990722417831421,-11.627196311950684,66.66667175292969,150.0,1.0,Rest
159662.71875,190990.84375,718283.0625,669417.0,-68342.4296875,-248393.15625,-451142.90625,-396994.34375,-0.01611328125,1.110595703125,-0.026123046875,-31.677244186401367,3.051757574081421,-11.810301780700684,66.66667175292969,151.0,1.0,Rest
159733.625,191126.375,717246.3125,668735.1875,-66692.421875,-246174.25,-449858.28125,-394868.96875,-0.02001953125,1.111328125,-0.02490234375,-34.820552825927734,3.814697027206421,-12.145995140075684,66.66667175292969,152.0,1.0,Rest
160007.5625,191587.1875,716387.5625,668255.875,-64758.640625,-243781.453125,-448388.875,-392425.65625,-0.021484375,1.111083984375,-0.026611328125,-37.750240325927734,4.089354991912842,-11.840819358825684,66.66667175292969,153.0,1.0,Rest
160338.8125,191986.109375,715565.5625,667764.3125,-62798.30078125,-241348.96875,-446864.84375,-389955.4375,-0.0263671875,1.108154296875,-0.02587890625,-41.381832122802734,4.425048351287842,-11.840819358825684,66.66667175292969,154.0,1.0,Rest
160455.40625,192007.65625,714566.4375,667077.8125,-61126.03515625,-239061.484375,-445455.4375,-387774.53125,-0.0322265625,1.10693359375,-0.02490234375,-44.891353607177734,4.241942882537842,-11.352538108825684,66.66667175292969,155.0,1.0,Rest
160377.4375,191858.984375,713484.6875,666300.875,-59669.86328125,-236858.046875,-444131.40625,-385804.71875,-0.037841796875,1.103759765625,-0.016845703125,-49.072261810302734,4.089354991912842,-11.108397483825684,66.66667175292969,156.0,1.0,Rest
160401.125,191941.953125,712523.9375,665646.6875,-58123.5703125,-234534.265625,-442739.34375,-383674.3125,-0.035888671875,1.101806640625,-0.0185546875,-53.436275482177734,3.448486089706421,-10.742186546325684,66.66667175292969,157.0,1.0,Rest
160650.578125,192356.796875,711763.5,665186.3125,-56307.53515625,-231985.90625,-441184.75,-381201.6875,-0.03662109375,1.096435546875,-0.0146484375,-57.861324310302734,3.387450933456421,-10.437010765075684,66.66667175292969,158.0,1.0,Rest
160946.96875,192745.71875,711036.75,664724.75,-54434.27734375,-229406.328125,-439582.3125,-378651.90625,-0.03662109375,1.092529296875,-0.010498046875,-62.072750091552734,3.784179449081421,-9.735106468200684,66.66667175292969,159.0,1.0,Rest
161090.546875,192825.734375,710147.4375,664075.625,-52810.55859375,-226982.78125,-438107.0,-376356.46875,-0.036865234375,1.088623046875,-0.004150390625,-66.16210174560547,4.302978038787842,-9.033202171325684,66.66667175292969,160.0,1.0,Rest
161040.84375,192744.375,709179.375,663323.4375,-51344.28515625,-224607.953125,-436687.125,-374240.375,-0.040771484375,1.0830078125,0.0029296875,-69.94628143310547,4.974364757537842,-8.483885765075684,66.66667175292969,161.0,1.0,Rest
161079.640625,192872.40625,708331.9375,662691.5,-49738.98046875,-222065.84375,-435129.03125,-371940.75,-0.04638671875,1.07373046875,0.00244140625,-73.76097869873047,5.126952648162842,-8.361815452575684,66.66667175292969,162.0,1.0,Rest
161376.390625,193323.375,707681.3125,662268.625,-47831.3046875,-219254.890625,-433362.875,-369272.65625,-0.05322265625,1.0634765625,0.00732421875,-76.35497283935547,4.821776866912842,-8.087157249450684,66.66667175292969,163.0,1.0,Rest
161694.40625,193762.28125,707024.8125,661846.1875,-45846.203125,-216305.796875,-431563.375,-366530.53125,-0.056640625,1.06201171875,0.005615234375,-79.40673065185547,4.638671398162842,-7.995604991912842,66.66667175292969,164.0,1.0,Rest
161822.4375,193861.25,706172.4375,661234.625,-44109.29296875,-213371.90625,-429879.84375,-364057.90625,-0.054931640625,1.05908203125,0.008056640625,-82.76366424560547,4.180907726287842,-7.995604991912842,66.66667175292969,165.0,1.0,Rest
161811.96875,193740.015625,705187.8125,660499.1875,-42573.4609375,-210445.265625,-428256.21875,-361816.90625,-0.050537109375,1.055419921875,0.012451171875,-85.57128143310547,3.509521245956421,-7.720946788787842,66.66667175292969,166.0,1.0,Rest
161906.75,193835.953125,704336.5625,659895.875,-40849.24609375,-207296.4375,-426523.875,-359408.125,-0.047607421875,1.057861328125,0.02734375,-87.98217010498047,3.417968511581421,-7.324218273162842,66.66667175292969,167.0,1.0,Rest
162234.25,194310.703125,703704.1875,659512.6875,-38801.55859375,-203884.9375,-424559.96875,-356579.0,-0.046875,1.06787109375,0.0419921875,-91.12548065185547,3.295898199081421,-6.439208507537842,66.66667175292969,168.0,1.0,Rest
162585.609375,194802.96875,703074.6875,659145.625,-36745.5546875,-200659.3125,-422511.125,-353671.3125,-0.03857421875,1.065673828125,0.04150390625,-95.91674041748047,3.570556402206421,-6.134032726287842,66.66667175292969,169.0,1.0,Rest
162749.3125,194927.96875,702336.4375,658587.0,-35002.1171875,-198021.09375,-420543.8125,-351057.3125,-0.034912109375,1.06591796875,0.054443359375,-99.36522674560547,3.631591558456421,-5.462646007537842,66.66667175292969,170.0,1.0,Rest
162762.640625,194866.890625,701491.9375,657918.625,-33449.4765625,-195537.984375,-418642.90625,-348631.53125,-0.033447265625,1.07421875,0.073486328125,-103.17992401123047,3.570556402206421,-3.967284917831421,66.66667175292969,171.0,1.0,Rest
162843.734375,195016.5625,700747.0,657371.75,-31730.44921875,-192924.53125,-416595.9375,-345983.375,-0.025390625,1.09716796875,0.1142578125,-108.48998260498047,4.180907726287842,-1.8920897245407104,66.66667175292969,172.0,1.0,Rest
163105.0625,195420.78125,700131.6875,656965.0,-29753.392578125,-190162.484375,-414307.40625,-342990.125,-0.019287109375,1.12158203125,0.179931640625,-115.96678924560547,4.486083507537842,0.6713866591453552,66.66667175292969,173.0,1.0,Rest
163476.109375,195799.40625,699539.5625,656590.5625,-27693.455078125,-187355.90625,-411798.1875,-339829.84375,-0.013916015625,1.143310546875,0.266357421875,-124.84740447998047,4.791259288787842,3.997802495956421,66.66667175292969,174.0,1.0,Rest
163695.59375,195805.671875,698829.5,656063.875,-25832.984375,-184789.390625,-409274.6875,-336896.40625,-0.01123046875,1.146484375,0.34619140625,-135.43699645996094,5.462646007537842,7.690429210662842,66.66667175292969,175.0,1.0,Rest
163715.1875,195613.359375,698007.4375,655431.3125,-24164.203125,-182427.796875,-406751.875,-334173.875,-0.016357421875,1.104736328125,0.38720703125,-146.30125427246094,6.042479991912842,11.596678733825684,66.66667175292969,176.0,1.0,Rest
163774.375,195643.125,697285.5625,654902.1875,-22380.53515625,-180020.59375,-404067.625,-331273.875,-0.02783203125,1.010986328125,0.371337890625,-154.87669372558594,6.256103038787842,15.502928733825684,66.66667175292969,177.0,1.0,Rest
164001.109375,195986.625,696736.375,654561.375,-20265.880859375,-177506.296875,-401144.625,-327978.34375,-0.04248046875,0.88427734375,0.296875,-160.00364685058594,6.530761241912842,18.249509811401367,66.66667175292969,178.0,1.0,Rest
164284.703125,196285.875,696189.625,654183.1875,-18092.576171875,-175078.1875,-398186.5,-324600.375,-0.052001953125,0.744873046875,0.194091796875,-160.06468200683594,6.774901866912842,19.866941452026367,66.66667175292969,179.0,1.0,Rest
164418.453125,196223.296875,695456.4375,653595.375,-16200.0087890625,-172863.578125,-395406.75,-321547.375,-0.066162109375,0.6162109375,0.101806640625,-156.03636169433594,7.019042491912842,19.927976608276367,66.66667175292969,180.0,1.0,Rest
164467.984375,195998.96875,694666.125,652917.125,-14507.802734375,-170789.953125,-392755.65625,-318773.53125,-0.080810546875,0.505615234375,0.02880859375,-147.76609802246094,6.378173351287842,18.157957077026367,66.66667175292969,181.0,1.0,Rest
164633.75,196056.28125,694013.8125,652395.0,-12665.3037109375,-168601.625,-389996.5625,-315853.21875,-0.085205078125,0.41943359375,-0.00537109375,-136.13890075683594,4.821776866912842,15.014647483825684,66.66667175292969,182.0,1.0,Rest
164971.171875,196454.765625,693535.6875,652072.75,-10560.037109375,-166178.171875,-387082.15625,-312626.09375,-0.0791015625,0.37890625,0.005126953125,-121.82616424560547,2.685546636581421,11.260985374450684,66.66667175292969,183.0,1.0,Rest
165304.296875,196853.875,693085.875,651757.9375,-8322.806640625,-163661.0,-384131.65625,-309336.625,-0.063232421875,0.390625,0.041748046875,-108.33739471435547,1.0681151151657104,7.446288585662842,66.66667175292969,184.0,1.0,Rest
165438.59375,196953.5625,692514.9375,651296.6875,-6296.66552734375,-161296.1875,-381278.5,-306340.96875,-0.0439453125,0.427978515625,0.09521484375,-97.01537322998047,0.7629393935203552,3.448486089706421,66.66667175292969,185.0,1.0,Rest
165428.671875,196891.15625,691826.5625,650718.6875,-4495.29345703125,-159073.53125,-378410.65625,-303567.28125,-0.019775390625,0.486572265625,0.168212890625,-86.05956268310547,1.3122557401657104,0.5187987685203552,66.66667175292969,186.0,1.0,Rest
165482.125,197041.71875,691069.1875,650245.1875,-2585.64990234375,-156718.90625,-375375.75,-300615.34375,0.00048828125,0.56494140625,0.25732421875,-76.69066619873047,2.685546636581421,-0.5493163466453552,66.66667175292969,187.0,1.0,Rest
165688.9375,197482.59375,690556.375,649932.0,-436.3060607910156,-154159.90625,-372229.875,-297309.875,0.01513671875,0.65380859375,0.35400390625,-70.09886932373047,4.699706554412842,-0.1831054538488388,66.66667175292969,188.0,1.0,Rest
165950.984375,197900.390625,690256.875,649613.875,1731.1873779296875,-151589.71875,-369014.0,-293906.3125,0.0263671875,0.7392578125,0.447509765625,-66.00951385498047,6.469726085662842,1.2207030057907104,66.66667175292969,189.0,1.0,Rest
166054.34375,198012.0625,689747.0625,649118.3125,3644.496826171875,-149172.78125,-365858.90625,-290759.90625,0.0322265625,0.81298828125,0.535888671875,-62.683101654052734,7.232665538787842,4.241942882537842,66.66667175292969,190.0,1.0,Rest
165965.828125,197921.84375,689086.6875,648494.5625,5287.88671875,-146952.265625,-362779.46875,-287839.15625,0.04248046875,0.87744140625,0.59619140625,-62.988277435302734,7.720946788787842,7.537841320037842,66.66667175292969,191.0,1.0,Rest
165999.34375,198045.9375,688553.5,648004.9375,7034.72021484375,-144635.734375,-359624.5625,-284707.25,0.044921875,0.91015625,0.619873046875,-65.73485565185547,8.636473655700684,10.559081077575684,66.66667175292969,192.0,1.0,Rest
166256.484375,198396.15625,688175.125,647688.6875,9102.435546875,-142140.921875,-356339.21875,-281229.3125,0.036865234375,0.91015625,0.605712890625,-66.61986541748047,8.544920921325684,14.953612327575684,66.66667175292969,193.0,1.0,Rest
166566.90625,198708.71875,687766.6875,647368.125,11245.69921875,-139712.71875,-353049.3125,-277712.125,0.029541015625,0.880615234375,0.5498046875,-68.42040252685547,10.253905296325684,18.493650436401367,66.66667175292969,194.0,1.0,Rest
166749.46875,198717.296875,687151.75,646857.875,13164.9990234375,-137543.4375,-349953.5,-274458.5,0.009033203125,0.81591796875,0.4814453125,-68.14574432373047,11.444090843200684,21.118162155151367,66.66667175292969,195.0,1.0,Rest
166819.921875,198547.875,686418.4375,646216.125,14853.8974609375,-135540.8125,-347057.96875,-271482.59375,-0.01318359375,0.7548828125,0.41845703125,-63.903804779052734,12.145995140075684,22.308347702026367,66.66667175292969,196.0,1.0,Rest
166940.625,198587.921875,685771.875,645679.0,16613.068359375,-133449.9375,-344177.625,-268446.625,-0.031494140625,0.71240234375,0.3740234375,-57.586666107177734,13.122557640075684,21.301267623901367,66.66667175292969,197.0,1.0,Rest
167232.265625,198965.671875,685320.8125,645341.1875,18712.255859375,-131159.0625,-341187.78125,-265143.46875,-0.046142578125,0.69189453125,0.361572265625,-48.919673919677734,12.573241233825684,19.439695358276367,66.66667175292969,198.0,1.0,Rest
167537.234375,199286.828125,684904.9375,645033.5625,21017.16796875,-128829.7421875,-338229.125,-261844.4375,-0.048828125,0.7060546875,0.371826171875,-40.039058685302734,11.535643577575684,17.089841842651367,66.66667175292969,199.0,1.0,Rest
167667.59375,199301.03125,684348.5,644571.0625,22860.91796875,-126696.578125,-335458.40625,-258904.828125,-0.04638671875,0.74072265625,0.406494140625,-32.073970794677734,10.498045921325684,15.106200218200684,66.66667175292969,200.0,1.0,Rest
167641.21875,199231.484375,683709.0625,644013.3125,24352.853515625,-124700.8359375,-332831.71875,-256246.40625,-0.037109375,0.78955078125,0.448974609375,-25.604246139526367,9.552000999450684,13.946532249450684,66.66667175292969,201.0,1.0,Rest
167652.3125,199333.3125,683142.125,643549.3125,25851.939453125,-122627.3984375,-330202.5,-253504.828125,-0.03076171875,0.843505859375,0.484130859375,-21.179197311401367,9.002684593200684,13.488768577575684,66.66667175292969,202.0,1.0,Rest
167851.0625,199692.375,682730.5625,643265.0625,27628.90234375,-120387.9296875,-327449.125,-250457.75,-0.025390625,0.891845703125,0.506591796875,-18.432615280151367,8.728026390075684,13.549803733825684,66.66667175292969,203.0,1.0,Rest
168102.296875,200017.09375,682326.4375,642982.75,29450.837890625,-118203.2734375,-324697.375,-247364.890625,-0.01904296875,0.9326171875,0.512939453125,-16.601560592651367,8.697508811950684,13.793944358825684,66.66667175292969,204.0,1.0,Rest
168247.046875,200072.890625,681794.5,642536.625,31001.69140625,-116240.96875,-322086.6875,-244563.765625,-0.013916015625,0.9658203125,0.51171875,-15.258788108825684,9.063719749450684,14.160155296325684,66.66667175292969,205.0,1.0,Rest
168295.5,199935.296875,681182.5,641996.125,32330.1015625,-114422.4296875,-319601.25,-242014.328125,-0.01318359375,0.994140625,0.503173828125,-14.343260765075684,9.216307640075684,14.404295921325684,66.66667175292969,206.0,1.0,Rest
168369.53125,199935.109375,680621.625,641535.75,33696.6875,-112543.453125,-317126.3125,-239396.84375,-0.012939453125,1.0126953125,0.489013671875,-14.068602561950684,9.063719749450684,14.465331077575684,66.66667175292969,207.0,1.0,Rest
168582.3125,200198.859375,680194.75,641237.4375,35280.0859375,-110498.5390625,-314555.5,-236504.53125,-0.010986328125,1.021484375,0.478515625,-13.854979515075684,8.911131858825684,14.587401390075684,66.66667175292969,208.0,1.0,Rest
168816.390625,200450.0,679778.625,640946.0625,36893.43359375,-108446.2890625,-311995.15625,-233571.0,-0.008056640625,1.02490234375,0.46923828125,-13.610838890075684,8.819579124450684,14.617918968200684,66.66667175292969,209.0,1.0,Rest
168908.46875,200439.546875,679229.5,640525.5625,38258.9453125,-106574.9140625,-309600.375,-230934.5625,-0.010009765625,1.030517578125,0.462890625,-13.549803733825684,8.544920921325684,14.648436546325684,66.66667175292969,210.0,1.0,Rest
168823.53125,200221.390625,678577.1875,639979.625,39365.8046875,-104880.5625,-307388.71875,-228606.671875,-0.00927734375,1.031494140625,0.462890625,-13.702391624450684,8.117674827575684,14.465331077575684,66.66667175292969,211.0,1.0,Rest
168793.765625,200207.265625,678032.5,639527.875,40548.12109375,-103116.828125,-305140.5625,-226184.90625,-0.0068359375,1.028564453125,0.46337890625,-14.068602561950684,7.598876476287842,14.221190452575684,66.66667175292969,212.0,1.0,Rest
168950.046875,200507.5,677645.4375,639253.9375,41957.17578125,-101211.5625,-302756.0,-223480.265625,-0.00439453125,1.025146484375,0.46240234375,-14.373778343200684,7.202147960662842,13.977049827575684,66.66667175292969,213.0,1.0,Rest
169176.78125,200794.046875,677270.75,639005.8125,43400.921875,-99316.1328125,-300377.6875,-220733.5,-0.00634765625,1.0224609375,0.46142578125,-14.831542015075684,6.958007335662842,13.580321311950684,66.66667175292969,214.0,1.0,Rest
169286.125,200790.015625,676749.875,638608.875,44624.0078125,-97596.3046875,-298160.75,-218271.671875,-0.005126953125,1.019287109375,0.45654296875,-15.258788108825684,6.774901866912842,13.275145530700684,66.66667175292969,215.0,1.0,Rest
169243.390625,200578.578125,676103.5625,638085.1875,45614.19140625,-96050.9921875,-296099.90625,-216106.78125,-0.005615234375,1.015625,0.4521484375,-15.869139671325684,6.561278820037842,12.878417015075684,66.66667175292969,216.0,1.0,Rest
169244.203125,200528.78125,675539.3125,637638.0,46674.01953125,-94454.0078125,-293998.21875,-213858.734375,-0.004638671875,1.008544921875,0.4453125,-16.235349655151367,6.286620616912842,12.695311546325684,66.66667175292969,217.0,1.0,Rest
169424.53125,200774.546875,675148.4375,637376.9375,47984.1015625,-92682.5859375,-291751.0,-211307.5,-0.00439453125,1.000244140625,0.4404296875,-16.662595748901367,5.889892101287842,12.420653343200684,66.66667175292969,218.0,1.0,Rest
169655.65625,201027.21875,674782.3125,637139.8125,49347.19921875,-90898.3828125,-289499.53125,-208700.578125,-0.002685546875,0.98876953125,0.434814453125,-16.906736373901367,5.462646007537842,12.145995140075684,66.66667175292969,219.0,1.0,Rest
169743.453125,200990.46875,674284.3125,636753.75,50465.32421875,-89301.03125,-287422.25,-206385.015625,-0.001708984375,0.982666015625,0.432373046875,-17.120359420776367,4.974364757537842,11.688231468200684,66.66667175292969,220.0,1.0,Rest
169693.46875,200770.0,673714.125,636263.5625,51350.54296875,-87849.9609375,-285498.5625,-204351.1875,0.00048828125,0.975830078125,0.434326171875,-17.242429733276367,4.638671398162842,11.413573265075684,66.66667175292969,221.0,1.0,Rest
169669.15625,200701.328125,673223.0625,635847.5,52306.9296875,-86328.7890625,-283545.46875,-202236.265625,0.003662109375,0.972900390625,0.4384765625,-17.517087936401367,4.089354991912842,11.016844749450684,66.66667175292969,222.0,1.0,Rest
169808.265625,200917.421875,672873.9375,635605.6875,53503.640625,-84646.1484375,-281462.03125,-199834.265625,0.00537109375,0.973876953125,0.444580078125,-18.096921920776367,3.601073980331421,10.711668968200684,66.66667175292969,223.0,1.0,Rest
170037.859375,201177.0625,672574.125,635412.9375,54794.5,-82926.40625,-279321.28125,-197344.453125,0.003173828125,0.97216796875,0.447509765625,-18.768308639526367,3.051757574081421,10.528563499450684,66.66667175292969,224.0,1.0,Rest
170149.796875,201152.03125,672147.8125,635065.8125,55879.0078125,-81389.765625,-277319.53125,-195128.59375,0.00341796875,0.966552734375,0.44775390625,-19.683835983276367,2.593993902206421,10.528563499450684,66.66667175292969,225.0,1.0,Rest
170094.90625,200889.796875,671593.125,634574.375,56706.19921875,-80047.0546875,-275496.625,-193223.328125,0.001708984375,0.95849609375,0.44677734375,-20.477293014526367,2.471923589706421,10.345458030700684,66.66667175292969,226.0,1.0,Rest
170089.984375,200802.0,671121.5,634166.9375,57609.56640625,-78631.5625,-273627.5625,-191216.953125,-0.002685546875,0.943359375,0.437744140625,-20.812986373901367,2.227782964706421,10.284422874450684,66.66667175292969,227.0,1.0,Rest
170271.390625,201029.453125,670803.625,633936.4375,58769.7109375,-77040.5625,-271606.875,-188899.609375,-0.007568359375,0.925048828125,0.437744140625,-20.721433639526367,1.9836424589157104,9.826659202575684,66.66667175292969,228.0,1.0,Rest
170512.890625,201283.09375,670506.4375,633733.6875,59991.546875,-75432.4921875,-269559.0,-186513.609375,-0.01171875,0.913330078125,0.437744140625,-20.568845748901367,1.3427733182907104,8.972167015075684,66.66667175292969,229.0,1.0,Rest
170610.25,201261.546875,670074.5,633383.5,60980.390625,-74001.171875,-267664.125,-184409.859375,-0.012939453125,0.905517578125,0.4345703125,-20.263669967651367,0.4272460639476776,7.934569835662842,66.66667175292969,230.0,1.0,Rest
170541.046875,201031.875,669519.8125,632899.0625,61719.60546875,-72740.8046875,-265939.28125,-182609.015625,-0.0107421875,0.897216796875,0.43505859375,-19.500730514526367,-0.2746581733226776,6.866454601287842,66.66667175292969,231.0,1.0,Rest
170511.8125,200981.359375,669056.6875,632504.25,62550.109375,-71394.25,-264169.46875,-180707.6875,-0.010986328125,0.892333984375,0.43701171875,-18.890378952026367,-1.0070799589157104,5.981444835662842,66.66667175292969,232.0,1.0,Rest
170650.125,201235.171875,668758.6875,632286.875,63640.24609375,-69865.5625,-262252.21875,-178502.921875,-0.00927734375,0.888427734375,0.43408203125,-18.524168014526367,-1.8615721464157104,5.126952648162842,66.66667175292969,233.0,1.0,Rest
170870.515625,201519.578125,668542.125,632112.8125,64825.515625,-68291.375,-260284.203125,-176208.109375,-0.005615234375,0.88427734375,0.4375,-18.035886764526367,-2.685546636581421,4.272460460662842,66.66667175292969,234.0,1.0,Rest
170942.84375,201492.046875,668211.3125,631774.6875,65771.171875,-66914.328125,-258480.40625,-174206.015625,-0.00048828125,0.883544921875,0.435791015625,-17.517087936401367,-3.265380620956421,3.753661870956421,66.66667175292969,235.0,1.0,Rest
170900.90625,201278.265625,667729.4375,631315.3125,66500.2890625,-65681.40625,-256806.53125,-172470.265625,0.001953125,0.88525390625,0.444580078125,-17.089841842651367,-3.509521245956421,3.204345464706421,66.66667175292969,236.0,1.0,Rest
170906.984375,201223.640625,667290.0,630931.9375,67308.5234375,-64382.50390625,-255075.609375,-170641.359375,0.004150390625,0.8876953125,0.449462890625,-16.632078170776367,-4.241942882537842,2.777099370956421,66.66667175292969,237.0,1.0,Rest
171056.5625,201429.546875,666970.625,630701.0625,68346.1875,-62946.26953125,-253213.890625,-168537.078125,0.009033203125,0.8876953125,0.45458984375,-16.815183639526367,-4.852294445037842,2.288818120956421,66.66667175292969,238.0,1.0,Rest
171297.515625,201677.203125,666702.875,630519.75,69478.078125,-61469.53515625,-251290.296875,-166328.015625,0.016357421875,0.884521484375,0.4580078125,-17.242429733276367,-5.340575695037842,1.8920897245407104,66.66667175292969,239.0,1.0,Rest
171428.765625,201667.546875,666307.0625,630202.625,70409.875,-60145.77734375,-249497.875,-164369.90625,0.021240234375,0.87548828125,0.457275390625,-17.120359420776367,-5.615233898162842,1.6784666776657104,66.66667175292969,240.0,1.0,Rest
171381.65625,201425.078125,665778.375,629745.875,71089.3671875,-59005.8359375,-247881.75,-162717.671875,0.02294921875,0.8642578125,0.45068359375,-16.784666061401367,-5.615233898162842,1.4648436307907104,66.66667175292969,241.0,1.0,Rest
171363.046875,201335.5,665327.3125,629367.5,71833.0546875,-57804.921875,-246226.296875,-160980.484375,0.025390625,0.8515625,0.445556640625,-16.113279342651367,-5.645751476287842,1.0986326932907104,66.66667175292969,242.0,1.0,Rest
171529.171875,201564.734375,665045.4375,629164.8125,72833.4296875,-56425.28125,-244407.9375,-158927.53125,0.023681640625,0.838623046875,0.435302734375,-14.984129905700684,-5.676269054412842,0.7629393935203552,66.66667175292969,243.0,1.0,Rest
171767.703125,201837.328125,664790.0,629003.6875,73921.6015625,-55005.58984375,-242544.25,-156778.625,0.024658203125,0.83251953125,0.426025390625,-13.519286155700684,-5.737304210662842,0.3051757514476776,66.66667175292969,244.0,1.0,Rest
171873.65625,201842.703125,664398.8125,628694.5,74797.703125,-53744.50390625,-240833.171875,-154899.921875,0.024658203125,0.83056640625,0.42236328125,-11.810301780700684,-5.920409679412842,-0.0915527269244194,66.66667175292969,245.0,1.0,Rest
171822.609375,201628.921875,663891.5625,628247.375,75437.0546875,-52632.28125,-239281.875,-153312.328125,0.029296875,0.8330078125,0.425537109375,-10.314940452575684,-6.011962413787842,-0.3967284858226776,66.66667175292969,246.0,1.0,Rest
171794.53125,201562.3125,663454.5,627872.0625,76138.09375,-51446.20703125,-237691.59375,-151647.03125,0.03076171875,0.8349609375,0.428466796875,-8.850096702575684,-6.042479991912842,-0.7019042372703552,66.66667175292969,247.0,1.0,Rest
171936.78125,201794.328125,663173.4375,627683.875,77094.03125,-50069.875,-235941.53125,-149669.703125,0.031982421875,0.8427734375,0.433837890625,-7.476806163787842,-5.981444835662842,-0.7019042372703552,66.66667175292969,248.0,1.0,Rest
172146.171875,202051.375,662912.875,627523.3125,78128.6484375,-48667.08203125,-234154.5625,-147602.796875,0.034912109375,0.847412109375,0.4404296875,-6.347655773162842,-5.828856945037842,-0.7324218153953552,66.66667175292969,249.0,1.0,Rest
172241.203125,202049.140625,662522.1875,627206.3125,78958.6171875,-47436.57421875,-232498.125,-145793.375,0.038330078125,0.856201171875,0.4423828125,-5.584716320037842,-5.584716320037842,-0.6408690810203552,66.66667175292969,250.0,1.0,Rest
172179.34375,201826.609375,662021.0625,626759.375,79547.359375,-46383.08984375,-230988.21875,-144270.140625,0.0390625,0.86474609375,0.442626953125,-4.882812023162842,-5.371093273162842,-0.7324218153953552,66.66667175292969,251.0,1.0,Rest
172159.046875,201758.390625,661597.4375,626391.8125,80206.46875,-45261.390625,-229431.015625,-142661.984375,0.03857421875,0.870361328125,0.442626953125,-4.425048351287842,-5.065917491912842,-0.5798339247703552,66.66667175292969,252.0,1.0,Rest
172316.40625,201993.078125,661342.8125,626202.75,81124.6796875,-43962.3984375,-227727.71875,-140749.296875,0.0380859375,0.875,0.440185546875,-4.028319835662842,-4.821776866912842,-0.4272460639476776,66.66667175292969,253.0,1.0,Rest
172548.5,202274.265625,661118.5,626050.9375,82143.3828125,-42619.859375,-225976.5,-138728.609375,0.036865234375,0.878662109375,0.43896484375,-3.662109136581421,-4.577636241912842,-0.3051757514476776,66.66667175292969,254.0,1.0,Rest
172666.609375,202295.453125,660773.1875,625763.75,82974.6875,-41426.63671875,-224352.6875,-136956.390625,0.034912109375,0.880859375,0.436767578125,-3.326415777206421,-4.302978038787842,-0.2746581733226776,66.66667175292969,255.0,1.0,Rest
172615.921875,202084.71875,660278.9375,625316.5625,83551.984375,-40411.5078125,-222913.328125,-135506.65625,0.036865234375,0.8837890625,0.43798828125,-3.082275152206421,-4.150390148162842,-0.3967284858226776,66.66667175292969,256.0,1.0,Rest
172589.546875,202013.640625,659839.25,624937.75,84180.25,-39342.2890625,-221441.515625,-133990.9375,0.035888671875,0.885986328125,0.436767578125,-2.746581792831421,-3.936767339706421,-0.5493163466453552,66.66667175292969,257.0,1.0,Rest
172728.828125,202238.421875,659564.5,624738.375,85065.0234375,-38091.6640625,-219807.515625,-132156.390625,0.034423828125,0.88916015625,0.44287109375,-2.563476324081421,-3.662109136581421,-0.5187987685203552,66.66667175292969,258.0,1.0,Rest
172952.625,202520.84375,659334.8125,624587.25,86050.109375,-36787.484375,-218120.765625,-130208.3046875,0.031005859375,0.888427734375,0.4423828125,-2.532958745956421,-3.448486089706421,-0.5493163466453552,66.66667175292969,259.0,1.0,Rest
173062.0625,202551.15625,658988.9375,624310.5625,86837.9609375,-35635.65625,-216564.0,-128506.3515625,0.030029296875,0.885986328125,0.44091796875,-2.532958745956421,-3.295898199081421,-0.7324218153953552,66.66667175292969,260.0,1.0,Rest
173008.40625,202347.9375,658523.3125,623900.25,87380.9296875,-34654.86328125,-215162.640625,-127100.6953125,0.028564453125,0.882568359375,0.43896484375,-2.227782964706421,-3.021239995956421,-0.7934569716453552,66.66667175292969,261.0,1.0,Rest
172986.6875,202296.171875,658121.125,623549.25,87978.9765625,-33619.796875,-213721.484375,-125624.6796875,0.027587890625,0.880126953125,0.4365234375,-1.8310545682907104,-2.868652105331421,-1.0070799589157104,66.66667175292969,262.0,1.0,Rest
173118.734375,202531.40625,657868.125,623370.625,88816.4453125,-32421.564453125,-212132.453125,-123851.3828125,0.02734375,0.8798828125,0.4306640625,-1.2512205839157104,-2.685546636581421,-1.1291502714157104,66.66667175292969,263.0,1.0,Rest
173322.234375,202806.859375,657641.375,623235.3125,89736.8046875,-31188.8203125,-210499.796875,-121976.6953125,0.025634765625,0.88330078125,0.43115234375,-0.6713866591453552,-2.563476324081421,-1.4953612089157104,66.66667175292969,264.0,1.0,Rest
173423.34375,202829.84375,657282.9375,622948.875,90462.7890625,-30105.38671875,-208998.125,-120351.71875,0.02587890625,0.88720703125,0.435546875,-0.2441406100988388,-2.441406011581421,-1.6784666776657104,66.66667175292969,265.0,1.0,Rest
173366.484375,202618.390625,656798.375,622513.625,90949.609375,-29181.8125,-207661.03125,-119027.875,0.0263671875,0.891845703125,0.43359375,0.1220703050494194,-2.410888433456421,-1.9226073026657104,66.66667175292969,266.0,1.0,Rest
173336.71875,202547.859375,656392.0,622163.875,91503.6640625,-28184.478515625,-206283.8125,-117626.328125,0.027587890625,0.896484375,0.439697265625,0.1220703050494194,-2.380370855331421,-1.9836424589157104,66.66667175292969,267.0,1.0,Rest
173462.421875,202767.796875,656139.125,621983.625,92311.8125,-27009.759765625,-204756.921875,-115921.6953125,0.02880859375,0.89892578125,0.44140625,0.1220703050494194,-2.410888433456421,-2.075195074081421,66.66667175292969,268.0,1.0,Rest
173674.578125,203043.53125,655928.125,621851.75,93228.1484375,-25787.38671875,-203173.703125,-114103.421875,0.0283203125,0.90234375,0.439453125,0.0915527269244194,-2.258300542831421,-2.288818120956421,66.66667175292969,269.0,1.0,Rest
173782.234375,203057.828125,655599.125,621593.8125,93958.15625,-24723.712890625,-201712.515625,-112521.546875,0.02685546875,0.9033203125,0.442138671875,0.1525878757238388,-2.014159917831421,-2.410888433456421,66.66667175292969,270.0,1.0,Rest
173726.34375,202835.109375,655147.25,621201.75,94445.6015625,-23830.626953125,-200406.109375,-111231.140625,0.0283203125,0.9033203125,0.44287109375,0.03051757626235485,-2.044677495956421,-2.502441167831421,66.66667175292969,271.0,1.0,Rest
173702.828125,202754.375,654760.875,620875.875,94988.75,-22877.369140625,-199059.109375,-109875.015625,0.025146484375,0.903076171875,0.43896484375,0.0610351525247097,-1.8920897245407104,-2.593993902206421,66.66667175292969,272.0,1.0,Rest
173828.453125,202953.40625,654511.0625,620704.75,95769.453125,-21761.390625,-197572.171875,-108229.921875,0.027099609375,0.906494140625,0.438232421875,0.0,-1.8615721464157104,-2.716064214706421,66.66667175292969,273.0,1.0,Rest
174039.546875,203213.84375,654290.9375,620565.625,96653.6875,-20595.166015625,-196024.265625,-106465.03125,0.023681640625,0.90478515625,0.43896484375,0.0915527269244194,-1.7395018339157104,-2.838134527206421,66.66667175292969,274.0,1.0,Rest
174139.40625,203221.53125,653949.875,620290.25,97349.09375,-19578.69921875,-194604.75,-104940.90625,0.02099609375,0.9072265625,0.442138671875,0.1831054538488388,-1.7089842557907104,-2.929687261581421,66.66667175292969,275.0,1.0,Rest
174080.484375,203006.328125,653502.1875,619891.75,97803.7265625,-18727.8125,-193346.796875,-103718.265625,0.01953125,0.907958984375,0.4423828125,0.0915527269244194,-1.5563963651657104,-3.021239995956421,66.66667175292969,276.0,1.0,Rest
174053.75,202927.75,653125.9375,619565.1875,98319.4296875,-17809.9609375,-192043.0625,-102421.8671875,0.02001953125,0.9072265625,0.4404296875,-0.0915527269244194,-1.6174315214157104,-3.112792730331421,66.66667175292969,277.0,1.0,Rest
174173.828125,203129.4375,652880.0625,619386.4375,99065.4375,-16738.865234375,-190611.75,-100842.9375,0.020263671875,0.90234375,0.44091796875,-0.1831054538488388,-1.5869139432907104,-3.204345464706421,66.66667175292969,278.0,1.0,Rest
174371.15625,203384.4375,652670.8125,619249.9375,99917.7578125,-15615.197265625,-189127.234375,-99142.2421875,0.02001953125,0.900390625,0.440673828125,-0.03051757626235485,-1.5258787870407104,-3.387450933456421,66.66667175292969,279.0,1.0,Rest
174473.515625,203400.703125,652351.4375,618995.1875,100600.2890625,-14625.9990234375,-187753.046875,-97661.3046875,0.0185546875,0.8984375,0.4423828125,0.1831054538488388,-1.6784666776657104,-3.387450933456421,66.66667175292969,280.0,1.0,Rest
174416.578125,203187.828125,651914.5625,618612.5625,101036.234375,-13806.4052734375,-186539.078125,-96480.6875,0.01904296875,0.897705078125,0.44091796875,0.2136230319738388,-1.6784666776657104,-3.570556402206421,66.66667175292969,281.0,1.0,Rest
174387.0625,203118.8125,651549.1875,618297.8125,101517.875,-12933.0771484375,-185290.0625,-95243.203125,0.018798828125,0.894775390625,0.436279296875,0.3662109076976776,-1.6784666776657104,-3.814697027206421,66.66667175292969,282.0,1.0,Rest
174499.984375,203325.421875,651323.0,618135.125,102234.0234375,-11897.38671875,-183896.296875,-93712.2890625,0.018310546875,0.89208984375,0.436767578125,0.7324218153953552,-1.6174315214157104,-3.814697027206421,66.66667175292969,283.0,1.0,Rest
174691.3125,203592.75,651134.3125,618015.9375,103050.3984375,-10810.5556640625,-182448.453125,-92059.7734375,0.015625,0.893798828125,0.43603515625,1.2817381620407104,-1.5869139432907104,-3.967284917831421,66.66667175292969,284.0,1.0,Rest
174800.84375,203638.34375,650848.75,617785.6875,103702.265625,-9846.48046875,-181098.9375,-90614.15625,0.013671875,0.893798828125,0.440673828125,1.7700194120407104,-1.5563963651657104,-3.967284917831421,66.66667175292969,285.0,1.0,Rest
174750.78125,203425.03125,650433.9375,617410.0,104109.2421875,-9050.400390625,-179910.71875,-89474.125,0.0126953125,0.8955078125,0.4404296875,1.9226073026657104,-1.7395018339157104,-4.089354991912842,66.66667175292969,286.0,1.0,Rest
174700.265625,203313.53125,650057.3125,617076.0,104545.28125,-8225.978515625,-178719.28125,-88306.46875,0.011474609375,0.89453125,0.439453125,2.075195074081421,-1.8920897245407104,-4.302978038787842,66.66667175292969,287.0,1.0,Rest
174809.15625,203500.3125,649830.0,616910.6875,105235.953125,-7224.62060546875,-177367.625,-86829.6484375,0.0107421875,0.89501953125,0.443115234375,2.502441167831421,-1.9226073026657104,-4.455565929412842,66.66667175292969,288.0,1.0,Rest
175008.53125,203763.703125,649658.5,616807.875,106045.265625,-6157.54833984375,-175946.859375,-85216.4765625,0.009521484375,0.892333984375,0.44287109375,2.807616949081421,-1.9226073026657104,-4.699706554412842,66.66667175292969,289.0,1.0,Rest
175112.25,203793.296875,649371.0625,616574.5,106681.125,-5226.642578125,-174647.234375,-83831.6484375,0.008544921875,0.893310546875,0.442626953125,2.990722417831421,-2.014159917831421,-4.760741710662842,66.66667175292969,290.0,1.0,Rest
175034.828125,203572.09375,648944.5,616191.125,107055.1171875,-4483.31298828125,-173524.828125,-82765.203125,0.009521484375,0.89306640625,0.443115234375,3.143310308456421,-2.044677495956421,-4.913329601287842,66.66667175292969,291.0,1.0,Rest
174972.328125,203470.359375,648573.6875,615864.4375,107465.671875,-3696.53173828125,-172371.921875,-81648.9609375,0.009765625,0.89453125,0.440673828125,3.448486089706421,-2.136230230331421,-4.913329601287842,66.66667175292969,292.0,1.0,Rest
175094.359375,203678.140625,648369.0,615722.3125,108144.2734375,-2717.525146484375,-171041.28125,-80208.078125,0.0087890625,0.895751953125,0.4404296875,3.662109136581421,-2.349853277206421,-4.882812023162842,66.66667175292969,293.0,1.0,Rest
175305.28125,203957.984375,648213.25,615636.25,108944.5546875,-1673.7880859375,-169642.328125,-78626.9140625,0.009033203125,0.8935546875,0.438232421875,3.692626714706421,-2.410888433456421,-5.126952648162842,66.66667175292969,294.0,1.0,Rest
175394.5,203979.078125,647924.0,615402.3125,109551.1796875,-786.6026000976562,-168382.5,-77289.296875,0.010498046875,0.89404296875,0.43310546875,3.936767339706421,-2.197265386581421,-5.279540538787842,66.66667175292969,295.0,1.0,Rest
175320.75,203756.640625,647498.125,615020.625,109907.1953125,-72.50906372070312,-167290.390625,-76261.3828125,0.0107421875,0.89453125,0.43310546875,4.547118663787842,-2.014159917831421,-5.218505382537842,66.66667175292969,296.0,1.0,Rest
175255.203125,203656.5,647119.625,614688.5625,110287.8046875,680.4765625,-166183.078125,-75197.890625,0.00830078125,0.901123046875,0.432861328125,5.035399913787842,-1.8920897245407104,-5.310058116912842,66.66667175292969,297.0,1.0,Rest
175378.140625,203875.546875,646913.5,614539.875,110946.734375,1635.164306640625,-164893.03125,-73806.5390625,0.005615234375,0.90771484375,0.434814453125,5.249022960662842,-1.7700194120407104,-5.523681163787842,66.66667175292969,298.0,1.0,Rest
175591.828125,204168.796875,646754.8125,614447.8125,111731.3671875,2656.9072265625,-163530.015625,-72272.046875,0.005126953125,0.912109375,0.436279296875,5.340575695037842,-1.8920897245407104,-5.554198741912842,66.66667175292969,299.0,1.0,Rest
175684.1875,204214.484375,646462.375,614214.8125,112321.453125,3528.625244140625,-162305.953125,-70974.3046875,0.006103515625,0.91796875,0.435302734375,5.218505382537842,-2.075195074081421,-5.554198741912842,66.66667175292969,300.0,1.0,Rest
175607.203125,204015.921875,646042.5,613835.5,112658.6953125,4222.69189453125,-161254.515625,-69986.8046875,0.00439453125,0.922119140625,0.433837890625,5.096435070037842,-2.075195074081421,-5.493163585662842,66.66667175292969,301.0,1.0,Rest
175543.09375,203927.40625,645678.8125,613511.6875,113042.703125,4966.6474609375,-160171.359375,-68951.734375,0.006103515625,0.92529296875,0.432861328125,4.913329601287842,-2.075195074081421,-5.554198741912842,66.66667175292969,302.0,1.0,Rest
175642.609375,204129.640625,645467.625,613363.4375,113670.609375,5885.7509765625,-158931.546875,-67615.90625,0.006103515625,0.9267578125,0.431884765625,4.821776866912842,-2.014159917831421,-5.462646007537842,66.66667175292969,303.0,1.0,Rest
175843.5,204405.8125,645317.875,613278.4375,114430.296875,6877.900390625,-157609.484375,-66124.2421875,0.004638671875,0.9287109375,0.430908203125,4.638671398162842,-2.349853277206421,-5.310058116912842,66.66667175292969,304.0,1.0,Rest
175929.875,204427.640625,645051.375,613055.4375,115000.0,7708.4912109375,-156414.390625,-64861.3671875,0.005859375,0.92822265625,0.431396484375,4.150390148162842,-2.288818120956421,-5.371093273162842,66.66667175292969,305.0,1.0,Rest
175854.953125,204201.796875,644659.1875,612694.5,115317.0390625,8361.6982421875,-155375.125,-63899.70703125,0.006103515625,0.923583984375,0.428466796875,4.089354991912842,-2.349853277206421,-5.310058116912842,66.66667175292969,306.0,1.0,Rest
175785.125,204092.890625,644299.6875,612372.3125,115643.640625,9046.01953125,-154331.5625,-62923.0234375,0.00732421875,0.921875,0.42578125,3.967284917831421,-2.136230230331421,-5.096435070037842,66.66667175292969,307.0,1.0,Rest
175893.390625,204295.84375,644105.3125,612227.8125,116243.921875,9933.919921875,-153116.34375,-61621.97265625,0.00634765625,0.91943359375,0.4189453125,3.997802495956421,-1.8920897245407104,-5.065917491912842,66.66667175292969,308.0,1.0,Rest
176091.875,204569.875,643958.1875,612151.875,116978.9296875,10889.591796875,-151826.203125,-60168.21484375,0.006103515625,0.9169921875,0.419921875,3.875732183456421,-1.7395018339157104,-4.882812023162842,66.66667175292969,309.0,1.0,Rest
176178.15625,204600.640625,643687.4375,611943.3125,117536.5625,11701.4072265625,-150656.671875,-58943.87890625,0.003662109375,0.914794921875,0.42138671875,3.875732183456421,-1.7089842557907104,-4.852294445037842,66.66667175292969,310.0,1.0,Rest
176103.859375,204380.609375,643286.0,611585.4375,117842.78125,12342.8125,-149645.296875,-58027.90234375,0.00244140625,0.91650390625,0.421875,3.967284917831421,-1.7395018339157104,-4.730224132537842,66.66667175292969,311.0,1.0,Rest
176032.0625,204252.9375,642922.3125,611266.5,118161.0703125,13011.5771484375,-148632.84375,-57092.6171875,0.003173828125,0.914794921875,0.41796875,3.936767339706421,-1.7395018339157104,-4.577636241912842,66.66667175292969,312.0,1.0,Rest
176132.65625,204440.515625,642722.625,611129.5625,118737.4765625,13873.1025390625,-147463.046875,-55843.2421875,0.002197265625,0.91455078125,0.416748046875,3.936767339706421,-1.6174315214157104,-4.516601085662842,66.66667175292969,313.0,1.0,Rest
176312.890625,204706.046875,642568.8125,611039.125,119439.3203125,14806.958984375,-146221.546875,-54444.0234375,0.0,0.914794921875,0.413818359375,3.936767339706421,-1.6174315214157104,-4.394530773162842,66.66667175292969,314.0,1.0,Rest
176395.78125,204733.046875,642305.8125,610834.875,119975.046875,15602.412109375,-145089.109375,-53257.32421875,-0.001220703125,0.916015625,0.411865234375,3.906249761581421,-1.4038084745407104,-4.302978038787842,66.66667175292969,315.0,1.0,Rest
176326.03125,204519.90625,641922.3125,610497.9375,120270.6328125,16228.171875,-144108.9375,-52370.3203125,-0.001708984375,0.9169921875,0.41015625,3.906249761581421,-1.3427733182907104,-4.180907726287842,66.66667175292969,316.0,1.0,Rest
176263.453125,204410.46875,641585.6875,610199.0,120585.609375,16886.921875,-143112.953125,-51455.23828125,0.000244140625,0.919921875,0.409912109375,3.723144292831421,-1.3122557401657104,-4.028319835662842,66.66667175292969,317.0,1.0,Rest
176352.671875,204602.421875,641389.0625,610047.4375,121133.671875,17710.451171875,-141969.171875,-50250.390625,-0.000244140625,0.923583984375,0.411865234375,3.448486089706421,-1.4343260526657104,-3.845214605331421,66.66667175292969,318.0,1.0,Rest
176538.46875,204893.265625,641248.875,609959.4375,121816.03125,18609.705078125,-140745.0,-48882.73046875,-0.001953125,0.92529296875,0.4150390625,3.173827886581421,-1.4648436307907104,-3.601073980331421,66.66667175292969,319.0,1.0,Rest
176629.578125,204930.015625,640997.0,609751.875,122341.1171875,19382.361328125,-139633.859375,-47717.9375,-0.00146484375,0.926025390625,0.410400390625,2.929687261581421,-1.3732908964157104,-3.417968511581421,66.66667175292969,320.0,1.0,Rest
176556.078125,204712.578125,640615.75,609410.3125,122625.5234375,19989.255859375,-138687.390625,-46859.71875,-0.001708984375,0.9248046875,0.40966796875,2.563476324081421,-1.4648436307907104,-3.173827886581421,66.66667175292969,321.0,1.0,Rest
176472.75,204584.28125,640262.625,609101.0625,122909.921875,20613.94140625,-137738.703125,-45994.9765625,-0.001220703125,0.923583984375,0.408447265625,2.380370855331421,-1.2512205839157104,-2.868652105331421,66.66667175292969,322.0,1.0,Rest
176548.921875,204745.203125,640057.9375,608951.375,123428.0390625,21406.802734375,-136629.78125,-44833.9375,-0.00048828125,0.923095703125,0.404541015625,2.166747808456421,-1.3732908964157104,-2.593993902206421,66.66667175292969,323.0,1.0,Rest
176747.046875,205019.6875,639930.3125,608882.8125,124102.5234375,22298.548828125,-135423.0625,-43485.41015625,-0.001220703125,0.923095703125,0.402099609375,1.9531248807907104,-1.5563963651657104,-2.410888433456421,66.66667175292969,324.0,1.0,Rest
176852.546875,205064.65625,639689.875,608695.1875,124618.3984375,23061.458984375,-134333.09375,-42342.1640625,0.00048828125,0.921142578125,0.39794921875,1.7700194120407104,-1.5869139432907104,-2.197265386581421,66.66667175292969,325.0,1.0,Rest
176776.5625,204840.0625,639309.8125,608353.1875,124874.640625,23638.669921875,-133410.421875,-41520.87109375,0.001220703125,0.920166015625,0.399169921875,1.6174315214157104,-1.4343260526657104,-2.014159917831421,66.66667175292969,326.0,1.0,Rest
176692.609375,204700.0625,638959.0625,608040.1875,125140.71875,24238.0546875,-132478.4375,-40688.04296875,0.000244140625,0.921142578125,0.40087890625,1.4953612089157104,-1.3732908964157104,-1.7700194120407104,66.66667175292969,327.0,1.0,Rest
176770.03125,204859.65625,638757.5625,607889.1875,125653.5546875,25011.87109375,-131396.875,-39557.40234375,0.00048828125,0.92138671875,0.3994140625,1.3122557401657104,-1.4343260526657104,-1.6174315214157104,66.66667175292969,328.0,1.0,Rest
176966.28125,205137.4375,638624.75,607818.0,126318.4765625,25878.939453125,-130223.59375,-38247.50390625,-0.00146484375,0.921630859375,0.3984375,1.1901854276657104,-1.4953612089157104,-1.4648436307907104,66.66667175292969,329.0,1.0,Rest
177057.296875,205179.09375,638386.6875,607634.5,126815.9375,26610.916015625,-129158.4921875,-37144.12890625,-0.002197265625,0.924072265625,0.400634765625,0.9155272841453552,-1.5258787870407104,-1.2207030057907104,66.66667175292969,330.0,1.0,Rest
176985.765625,204974.0,638018.125,607300.5625,127055.8125,27168.904296875,-128251.6328125,-36350.5546875,-0.001708984375,0.922119140625,0.40283203125,0.5493163466453552,-1.6174315214157104,-0.8850097060203552,66.66667175292969,331.0,1.0,Rest
176898.78125,204845.96875,637674.9375,606990.375,127296.234375,27742.896484375,-127350.859375,-35554.47265625,-0.001708984375,0.9228515625,0.404052734375,0.2441406100988388,-1.7089842557907104,-0.6408690810203552,66.66667175292969,332.0,1.0,Rest
176973.4375,205014.046875,637487.1875,606847.625,127790.3828125,28500.083984375,-126296.2109375,-34455.57421875,-0.00439453125,0.919677734375,0.404541015625,-0.2746581733226776,-1.8310545682907104,-0.3662109076976776,66.66667175292969,333.0,1.0,Rest
177157.34375,205292.375,637364.3125,606781.75,128437.2421875,29347.484375,-125153.3203125,-33178.39453125,-0.006591796875,0.917724609375,0.405517578125,-0.6713866591453552,-1.8920897245407104,-0.2746581733226776,66.66667175292969,334.0,1.0,Rest
177250.5,205344.234375,637134.0625,606598.9375,128926.1171875,30063.9921875,-124113.703125,-32097.375,-0.0087890625,0.915771484375,0.403564453125,-0.9155272841453552,-2.136230230331421,-0.1220703050494194,66.66667175292969,335.0,1.0,Rest
177174.953125,205135.734375,636774.5,606270.25,129159.296875,30599.80859375,-123239.1171875,-31330.798828125,-0.010009765625,0.914306640625,0.40087890625,-1.0681151151657104,-2.227782964706421,-0.1525878757238388,66.66667175292969,336.0,1.0,Rest
177095.03125,205006.546875,636446.4375,605974.0625,129398.1015625,31162.982421875,-122351.84375,-30551.974609375,-0.0087890625,0.910400390625,0.397705078125,-1.2207030057907104,-2.319335699081421,-0.1525878757238388,66.66667175292969,337.0,1.0,Rest
177176.390625,205175.078125,636263.6875,605837.0625,129877.5,31897.998046875,-121315.3515625,-29478.912109375,-0.008056640625,0.908203125,0.394775390625,-1.1291502714157104,-2.532958745956421,-0.1831054538488388,66.66667175292969,338.0,1.0,Rest
177370.21875,205456.0,636145.3125,605772.1875,130509.875,32720.09375,-120191.953125,-28227.662109375,-0.009521484375,0.908935546875,0.39306640625,-1.0986326932907104,-2.777099370956421,-0.2441406100988388,66.66667175292969,339.0,1.0,Rest
177486.53125,205522.59375,635930.9375,605604.4375,131006.796875,33430.34375,-119156.3515625,-27155.224609375,-0.009521484375,0.9091796875,0.392822265625,-1.1596678495407104,-2.899169683456421,-0.2746581733226776,66.66667175292969,340.0,1.0,Rest
177415.8125,205303.546875,635565.0,605272.3125,131229.515625,33942.5546875,-118301.265625,-26418.421875,-0.007080078125,0.91162109375,0.393310546875,-1.0681151151657104,-3.173827886581421,-0.2746581733226776,66.66667175292969,341.0,1.0,Rest
177334.375,205168.28125,635233.75,604970.8125,131452.046875,34478.8203125,-117438.484375,-25677.41796875,-0.006103515625,0.91259765625,0.39794921875,-1.1901854276657104,-3.326415777206421,-0.2136230319738388,66.66667175292969,342.0,1.0,Rest
177414.921875,205331.984375,635054.9375,604836.625,131915.265625,35192.375,-116418.0859375,-24633.142578125,-0.004638671875,0.91357421875,0.39794921875,-1.2817381620407104,-3.479003667831421,-0.3662109076976776,66.66667175292969,343.0,1.0,Rest
177603.296875,205609.765625,634949.4375,604784.0625,132530.5625,35997.30859375,-115307.9140625,-23404.154296875,-0.002197265625,0.915771484375,0.401611328125,-1.5258787870407104,-3.662109136581421,-0.4272460639476776,66.66667175292969,344.0,1.0,Rest
177708.71875,205669.046875,634737.0625,604619.4375,133002.625,36686.1875,-114292.96875,-22356.841796875,-0.00048828125,0.9150390625,0.402099609375,-1.7700194120407104,-3.662109136581421,-0.3356933295726776,66.66667175292969,345.0,1.0,Rest
177635.84375,205456.0,634376.3125,604303.9375,133206.75,37183.828125,-113450.84375,-21629.873046875,-0.00048828125,0.9169921875,0.404296875,-2.044677495956421,-3.631591558456421,-0.2136230319738388,66.66667175292969,346.0,1.0,Rest
177531.953125,205294.96875,634027.625,603994.125,133396.734375,37690.49609375,-112622.9375,-20923.916015625,0.0009765625,0.917724609375,0.40283203125,-2.380370855331421,-3.723144292831421,-0.1525878757238388,66.66667175292969,347.0,1.0,Rest
177597.84375,205440.703125,633833.4375,603849.5,133838.765625,38383.84765625,-111632.75,-19915.583984375,0.0009765625,0.91650390625,0.405029296875,-2.655029058456421,-3.845214605331421,-0.2441406100988388,66.66667175292969,348.0,1.0,Rest
177805.09375,205731.90625,633727.625,603798.625,134458.53125,39188.69140625,-110530.3671875,-18696.4296875,0.002197265625,0.91748046875,0.40673828125,-2.960204839706421,-3.936767339706421,-0.3356933295726776,66.66667175292969,349.0,1.0,Rest
177908.890625,205788.3125,633509.375,603631.0,134925.5,39857.6328125,-109537.59375,-17670.57421875,0.003662109375,0.9140625,0.406005859375,-3.356933355331421,-3.936767339706421,-0.2746581733226776,66.66667175292969,350.0,1.0,Rest
177840.40625,205579.640625,633152.375,603317.6875,135132.390625,40339.625,-108717.546875,-16971.76953125,0.001220703125,0.908935546875,0.408935546875,-3.784179449081421,-3.906249761581421,-0.1220703050494194,66.66667175292969,351.0,1.0,Rest
177755.46875,205435.78125,632817.5,603017.125,135332.125,40836.4609375,-107899.5625,-16281.1904296875,0.00244140625,0.9013671875,0.40625,-4.028319835662842,-3.936767339706421,-0.1831054538488388,66.66667175292969,352.0,1.0,Rest
177822.984375,205587.515625,632632.625,602874.5,135767.0,41504.8671875,-106929.6796875,-15296.3720703125,0.00390625,0.894287109375,0.404052734375,-4.089354991912842,-3.814697027206421,-0.1220703050494194,66.66667175292969,353.0,1.0,Rest
178009.296875,205864.84375,632525.4375,602820.5625,136363.171875,42271.7109375,-105858.40625,-14112.087890625,0.004150390625,0.890380859375,0.402099609375,-3.936767339706421,-3.723144292831421,-0.2136230319738388,66.66667175292969,354.0,1.0,Rest
178101.921875,205921.359375,632308.5,602652.3125,136803.859375,42903.7265625,-104893.5234375,-13120.474609375,0.0048828125,0.887451171875,0.3994140625,-3.753661870956421,-3.601073980331421,-0.3356933295726776,66.66667175292969,355.0,1.0,Rest
178034.875,205714.640625,631960.1875,602336.4375,136995.015625,43360.41796875,-104089.9296875,-12440.9814453125,0.008056640625,0.884521484375,0.4013671875,-3.479003667831421,-3.479003667831421,-0.5187987685203552,66.66667175292969,356.0,1.0,Rest
177939.921875,205562.75,631637.6875,602045.25,137167.390625,43831.68359375,-103293.140625,-11771.94921875,0.009033203125,0.8837890625,0.399169921875,-2.929687261581421,-3.326415777206421,-0.5798339247703552,66.66667175292969,357.0,1.0,Rest
178008.9375,205720.640625,631470.1875,601923.0,137581.609375,44490.96875,-102342.1171875,-10804.4765625,0.009765625,0.8828125,0.399169921875,-2.380370855331421,-3.112792730331421,-0.4882812201976776,66.66667175292969,358.0,1.0,Rest
178193.125,206001.90625,631364.5,601869.5625,138161.859375,45254.5078125,-101292.4765625,-9644.4208984375,0.00830078125,0.884033203125,0.404052734375,-1.9226073026657104,-2.929687261581421,-0.5798339247703552,66.66667175292969,359.0,1.0,Rest
178302.640625,206075.578125,631169.75,601720.0625,138607.734375,45907.625,-100324.109375,-8652.71875,0.00634765625,0.886962890625,0.408203125,-1.6174315214157104,-2.838134527206421,-0.7629393935203552,66.66667175292969,360.0,1.0,Rest
178242.921875,205876.5625,630834.125,601417.25,138796.734375,46369.94921875,-99530.0859375,-7984.3115234375,0.002685546875,0.8916015625,0.409423828125,-1.3427733182907104,-2.777099370956421,-0.9155272841453552,66.66667175292969,361.0,1.0,Rest
178152.171875,205726.1875,630500.375,601110.9375,138957.84375,46832.359375,-98761.7265625,-7348.2705078125,-0.00048828125,0.898193359375,0.4111328125,-1.1901854276657104,-2.685546636581421,-1.0681151151657104,66.66667175292969,362.0,1.0,Rest
178213.5,205878.359375,630321.75,600978.5625,139354.90625,47473.41015625,-97832.875,-6409.9443359375,-0.00048828125,0.902099609375,0.41455078125,-1.1596678495407104,-2.441406011581421,-1.1901854276657104,66.66667175292969,363.0,1.0,Rest
178392.046875,206154.4375,630219.1875,600937.3125,139912.625,48204.3125,-96806.84375,-5277.2470703125,-0.001953125,0.905517578125,0.418212890625,-1.1291502714157104,-2.410888433456421,-1.1901854276657104,66.66667175292969,364.0,1.0,Rest
178496.84375,206207.1875,630019.4375,600786.9375,140351.34375,48823.72265625,-95870.8359375,-4319.876953125,-0.001220703125,0.907470703125,0.41748046875,-1.3732908964157104,-2.319335699081421,-1.3427733182907104,66.66667175292969,365.0,1.0,Rest
178440.0625,206008.34375,629687.125,600491.6875,140522.203125,49268.43359375,-95094.3359375,-3672.570556640625,-0.000244140625,0.9072265625,0.418212890625,-1.4953612089157104,-2.227782964706421,-1.3122557401657104,66.66667175292969,366.0,1.0,Rest
178350.203125,205872.71875,629361.9375,600200.4375,140646.21875,49714.9296875,-94339.1171875,-3051.370849609375,0.0009765625,0.90625,0.42333984375,-1.4953612089157104,-2.014159917831421,-1.5869139432907104,66.66667175292969,367.0,1.0,Rest
178412.703125,206016.390625,629188.3125,600071.125,141033.875,50338.3671875,-93420.8203125,-2132.89306640625,0.001708984375,0.90576171875,0.41796875,-1.6174315214157104,-1.9836424589157104,-1.7089842557907104,66.66667175292969,368.0,1.0,Rest
178609.9375,206287.203125,629095.9375,600027.875,141615.46875,51054.60546875,-92386.109375,-1012.4446411132812,0.002685546875,0.904296875,0.417236328125,-1.5563963651657104,-1.8615721464157104,-1.7700194120407104,66.66667175292969,369.0,1.0,Rest
178723.65625,206330.125,628897.9375,599869.6875,142077.96875,51643.44140625,-91460.484375,-72.77728271484375,0.00341796875,0.90380859375,0.41845703125,-1.4038084745407104,-1.7700194120407104,-1.8310545682907104,66.66667175292969,370.0,1.0,Rest
178676.359375,206115.1875,628572.5625,599574.875,142305.15625,52070.71484375,-90703.0234375,560.0453491210938,0.0048828125,0.9033203125,0.419677734375,-1.4038084745407104,-1.6479490995407104,-1.7395018339157104,66.66667175292969,371.0,1.0,Rest
178579.71875,205943.703125,628252.5625,599285.875,142464.75,52488.9609375,-89969.9765625,1150.489013671875,0.0048828125,0.904052734375,0.42138671875,-1.3427733182907104,-1.4953612089157104,-1.6479490995407104,66.66667175292969,372.0,1.0,Rest
178623.890625,206069.5,628075.625,599156.0625,142826.671875,53091.4765625,-89079.5703125,2029.8961181640625,0.0048828125,0.90380859375,0.42236328125,-1.2207030057907104,-1.3427733182907104,-1.5869139432907104,66.66667175292969,373.0,1.0,Rest
178781.953125,206336.03125,627971.3125,599114.75,143350.140625,53807.89453125,-88086.6171875,3116.1015625,0.004150390625,0.9052734375,0.423828125,-1.1596678495407104,-1.1291502714157104,-1.5869139432907104,66.66667175292969,374.0,1.0,Rest
178868.953125,206399.5,627774.0,598972.0625,143762.046875,54417.203125,-87180.03125,4043.4306640625,0.00146484375,0.9072265625,0.42578125,-0.8544921278953552,-0.8850097060203552,-1.6479490995407104,66.66667175292969,375.0,1.0,Rest
178796.890625,206187.515625,627439.0625,598674.875,143931.03125,54837.4140625,-86440.640625,4652.47119140625,-0.001708984375,0.907470703125,0.427490234375,-0.7019042372703552,-0.6713866591453552,-1.5563963651657104,66.66667175292969,376.0,1.0,Rest
178687.71875,206008.53125,627117.8125,598386.875,144072.46875,55252.44140625,-85719.03125,5224.8544921875,-0.00390625,0.90966796875,0.4267578125,-0.5493163466453552,-0.5798339247703552,-1.4953612089157104,66.66667175292969,377.0,1.0,Rest
178735.90625,206132.09375,626956.1875,598272.875,144444.046875,55849.4140625,-84841.953125,6091.11865234375,-0.004150390625,0.908203125,0.42822265625,-0.4882812201976776,-0.7019042372703552,-1.4343260526657104,66.66667175292969,378.0,1.0,Rest
178911.78125,206404.78125,626867.3125,598239.1875,144975.65625,56549.11328125,-83865.71875,7161.767578125,-0.005859375,0.90966796875,0.427001953125,-0.4577636420726776,-0.6408690810203552,-1.3732908964157104,66.66667175292969,379.0,1.0,Rest
179019.25,206484.890625,626683.75,598097.75,145381.296875,57132.9375,-82977.90625,8069.6953125,-0.0068359375,0.90771484375,0.427001953125,-0.3662109076976776,-0.6408690810203552,-1.2817381620407104,66.66667175292969,380.0,1.0,Rest
178956.921875,206292.578125,626356.8125,597800.3125,145535.171875,57523.46875,-82259.4296875,8650.8408203125,-0.0087890625,0.908203125,0.429443359375,-0.1831054538488388,-0.8850097060203552,-1.1291502714157104,66.66667175292969,381.0,1.0,Rest
178865.28125,206135.21875,626047.0,597516.4375,145675.625,57914.53515625,-81541.671875,9204.0908203125,-0.006591796875,0.91015625,0.42822265625,-0.1220703050494194,-1.0375975370407104,-1.3122557401657104,66.66667175292969,382.0,1.0,Rest
178932.703125,206276.484375,625898.375,597402.8125,146063.828125,58485.0390625,-80662.4453125,10050.328125,-0.006103515625,0.9111328125,0.426513671875,-0.1220703050494194,-0.8850097060203552,-1.2817381620407104,66.66667175292969,383.0,1.0,Rest
179115.09375,206555.25,625822.75,597374.8125,146615.375,59157.3828125,-79695.5078125,11097.9990234375,-0.007080078125,0.913818359375,0.427734375,0.03051757626235485,-0.8239745497703552,-1.1901854276657104,66.66667175292969,384.0,1.0,Rest
179234.71875,206641.265625,625655.5625,597250.625,147038.90625,59733.25,-78810.46875,11996.0029296875,-0.00732421875,0.912841796875,0.430419921875,-0.0610351525247097,-0.8239745497703552,-1.0375975370407104,66.66667175292969,385.0,1.0,Rest
179178.828125,206446.0,625338.875,596958.4375,147189.015625,60122.53125,-78094.9453125,12571.6943359375,-0.0087890625,0.916259765625,0.430419921875,0.0610351525247097,-0.8544921278953552,-1.0375975370407104,66.66667175292969,386.0,1.0,Rest
179075.296875,206275.59375,625026.125,596671.0,147293.890625,60501.2578125,-77405.4375,13098.2119140625,-0.0078125,0.9150390625,0.4306640625,0.2441406100988388,-0.7934569716453552,-1.0070799589157104,66.66667175292969,387.0,1.0,Rest
179111.953125,206391.640625,624860.125,596547.25,147626.03125,61050.39453125,-76571.4453125,13906.8984375,-0.006591796875,0.91357421875,0.429443359375,0.3051757514476776,-0.7934569716453552,-0.9765624403953552,66.66667175292969,388.0,1.0,Rest
179257.78125,206638.125,624764.4375,596505.75,148128.421875,61702.70703125,-75641.1640625,14918.716796875,-0.00927734375,0.91455078125,0.4306640625,0.3967284858226776,-0.8544921278953552,-0.9155272841453552,66.66667175292969,389.0,1.0,Rest
179357.109375,206712.515625,624593.0625,596377.3125,148532.0,62270.62109375,-74777.671875,15794.9052734375,-0.00927734375,0.916259765625,0.4287109375,0.5187987685203552,-0.9155272841453552,-0.8544921278953552,66.66667175292969,390.0,1.0,Rest
179293.71875,206515.203125,624292.375,596103.0625,148683.453125,62664.01171875,-74071.984375,16362.55078125,-0.009521484375,0.91650390625,0.4287109375,0.4577636420726776,-1.0681151151657104,-0.8850097060203552,66.66667175292969,391.0,1.0,Rest
179184.828125,206341.296875,623992.875,595829.9375,148786.1875,63039.1640625,-73399.46875,16878.0703125,-0.010498046875,0.915283203125,0.43115234375,0.3967284858226776,-1.0986326932907104,-0.7324218153953552,66.66667175292969,392.0,1.0,Rest
179216.75,206442.234375,623826.25,595704.6875,149105.71875,63572.296875,-72589.6171875,17661.544921875,-0.008056640625,0.912841796875,0.4306640625,0.3051757514476776,-1.1291502714157104,-0.6713866591453552,66.66667175292969,393.0,1.0,Rest
179376.25,206693.203125,623740.1875,595662.3125,149606.84375,64211.19921875,-71670.78125,18657.26953125,-0.007080078125,0.9111328125,0.433349609375,0.3967284858226776,-1.1596678495407104,-0.5798339247703552,66.66667175292969,394.0,1.0,Rest
179489.96875,206772.78125,623588.6875,595541.3125,150013.921875,64763.64453125,-70809.2578125,19521.478515625,-0.009765625,0.91162109375,0.431396484375,0.4577636420726776,-1.3732908964157104,-0.5187987685203552,66.66667175292969,395.0,1.0,Rest
179429.703125,206573.40625,623297.375,595279.4375,150162.875,65127.44140625,-70120.46875,20062.123046875,-0.009765625,0.911865234375,0.430908203125,0.3662109076976776,-1.4343260526657104,-0.4577636420726776,66.66667175292969,396.0,1.0,Rest
179332.703125,206407.375,623003.5625,595038.125,150267.125,65478.6328125,-69458.046875,20552.609375,-0.010986328125,0.911865234375,0.42724609375,0.3356933295726776,-1.4953612089157104,-0.4577636420726776,66.66667175292969,397.0,1.0,Rest
179370.609375,206519.046875,622840.0,594927.0,150586.484375,65992.2734375,-68658.0390625,21312.658203125,-0.007568359375,0.9072265625,0.42236328125,0.4272460639476776,-1.5563963651657104,-0.5187987685203552,66.66667175292969,398.0,1.0,Rest
179544.421875,206794.421875,622767.375,594901.625,151092.875,66624.7421875,-67744.5625,22298.19140625,-0.007568359375,0.90478515625,0.4228515625,0.7324218153953552,-1.5869139432907104,-0.5187987685203552,66.66667175292969,399.0,1.0,Rest
179654.84375,206876.671875,622611.8125,594783.0,151492.984375,67167.796875,-66901.546875,23149.166015625,-0.0087890625,0.9033203125,0.424072265625,1.0070799589157104,-1.6784666776657104,-0.5493163466453552,66.66667175292969,400.0,1.0,Rest
179591.0,206676.21875,622305.875,594498.5,151623.78125,67518.6328125,-66233.765625,23673.986328125,-0.010009765625,0.90283203125,0.424072265625,1.3122557401657104,-1.9226073026657104,-0.5798339247703552,66.66667175292969,401.0,1.0,Rest
179488.1875,206502.328125,622002.25,594202.75,151705.859375,67859.71875,-65587.0859375,24144.265625,-0.00830078125,0.9052734375,0.4267578125,1.4038084745407104,-2.105712652206421,-0.5187987685203552,66.66667175292969,402.0,1.0,Rest
179509.8125,206593.515625,621833.5,594061.9375,152002.0625,68362.8125,-64804.7734375,24884.01953125,-0.00732421875,0.907958984375,0.4248046875,1.4343260526657104,-2.258300542831421,-0.4577636420726776,66.66667175292969,403.0,1.0,Rest
179670.03125,206859.0625,621762.1875,594034.0,152489.515625,68988.9296875,-63905.96484375,25856.23046875,-0.006103515625,0.908203125,0.42431640625,1.3732908964157104,-2.319335699081421,-0.3662109076976776,66.66667175292969,404.0,1.0,Rest
179779.65625,206951.234375,621608.375,593920.1875,152870.375,69519.203125,-63082.2578125,26688.07421875,-0.0029296875,0.907958984375,0.42529296875,1.2512205839157104,-2.197265386581421,-0.4272460639476776,66.66667175292969,405.0,1.0,Rest
179729.578125,206767.421875,621320.25,593655.125,153010.75,69880.40625,-62410.8125,27214.0546875,-0.00439453125,0.90869140625,0.425537109375,1.4343260526657104,-2.136230230331421,-0.3051757514476776,66.66667175292969,406.0,1.0,Rest
179620.953125,206581.984375,621016.1875,593368.375,153087.46875,70209.15625,-61785.76953125,27663.771484375,-0.005615234375,0.91015625,0.421875,1.3427733182907104,-2.136230230331421,-0.2441406100988388,66.66667175292969,407.0,1.0,Rest
179645.53125,206666.203125,620843.25,593228.5,153372.84375,70688.203125,-61031.08203125,28368.12109375,-0.0068359375,0.9111328125,0.4228515625,1.3732908964157104,-2.227782964706421,-0.2136230319738388,66.66667175292969,408.0,1.0,Rest
179815.40625,206928.53125,620776.25,593210.6875,153863.96875,71298.8515625,-60145.953125,29316.548828125,-0.006103515625,0.90966796875,0.42333984375,1.2512205839157104,-2.258300542831421,-0.3051757514476776,66.66667175292969,409.0,1.0,Rest
179924.578125,207008.546875,620628.6875,593105.6875,154249.484375,71819.109375,-59330.02734375,30132.298828125,-0.00439453125,0.909423828125,0.425048828125,1.0070799589157104,-2.258300542831421,-0.2441406100988388,66.66667175292969,410.0,1.0,Rest
179869.59375,206820.078125,620339.4375,592840.8125,154380.5625,72157.9609375,-58676.640625,30634.408203125,-0.005126953125,0.90771484375,0.424560546875,0.7629393935203552,-2.380370855331421,-0.2136230319738388,66.66667175292969,411.0,1.0,Rest
179763.734375,206642.78125,620040.9375,592565.8125,154454.3125,72474.90625,-58059.1953125,31068.478515625,-0.006591796875,0.90625,0.4228515625,0.8544921278953552,-2.441406011581421,-0.1831054538488388,66.66667175292969,412.0,1.0,Rest
179793.5,206736.75,619877.3125,592443.375,154741.9375,72951.8984375,-57305.8515625,31768.8046875,-0.00634765625,0.902099609375,0.419677734375,0.9460448622703552,-2.319335699081421,-0.1220703050494194,66.66667175292969,413.0,1.0,Rest
179945.046875,206992.359375,619798.1875,592415.6875,155202.46875,73534.0234375,-56451.30078125,32687.28125,-0.006591796875,0.90185546875,0.41748046875,0.9765624403953552,-2.532958745956421,-0.2746581733226776,66.66667175292969,414.0,1.0,Rest
180049.21875,207084.984375,619644.9375,592302.3125,155569.40625,74035.8671875,-55655.48828125,33484.97265625,-0.00634765625,0.90234375,0.418212890625,0.9765624403953552,-2.532958745956421,-0.3051757514476776,66.66667175292969,415.0,1.0,Rest
179991.09375,206904.296875,619351.5625,592040.625,155683.578125,74362.828125,-55020.07421875,33970.09375,-0.006591796875,0.9033203125,0.421142578125,1.0986326932907104,-2.716064214706421,-0.3662109076976776,66.66667175292969,416.0,1.0,Rest
179883.359375,206726.015625,619052.9375,591763.375,155735.78125,74667.8828125,-54420.2421875,34384.40625,-0.00537109375,0.904296875,0.41845703125,1.0986326932907104,-2.807616949081421,-0.4577636420726776,66.66667175292969,417.0,1.0,Rest
179929.859375,206842.0625,618901.75,591646.5,156017.328125,75149.1640625,-53668.953125,35078.0234375,-0.002197265625,0.905029296875,0.4208984375,1.0070799589157104,-2.807616949081421,-0.3967284858226776,66.66667175292969,418.0,1.0,Rest
180091.328125,207107.078125,618832.3125,591628.4375,156479.75,75742.109375,-52812.078125,35996.50390625,-0.00146484375,0.907470703125,0.424072265625,0.8850097060203552,-2.838134527206421,-0.3051757514476776,66.66667175292969,419.0,1.0,Rest
180186.625,207191.5625,618673.6875,591515.5,156828.875,76232.7734375,-52034.86328125,36777.29296875,-0.0009765625,0.907958984375,0.423828125,0.7934569716453552,-2.899169683456421,-0.1831054538488388,66.66667175292969,420.0,1.0,Rest
180140.234375,207024.109375,618394.1875,591260.0625,156936.515625,76560.0,-51400.69921875,37257.765625,-0.00244140625,0.9072265625,0.421142578125,0.6713866591453552,-2.899169683456421,-0.1525878757238388,66.66667175292969,421.0,1.0,Rest
180049.65625,206857.890625,618107.9375,590991.9375,156989.453125,76868.90625,-50796.3984375,37671.72265625,-0.0009765625,0.9072265625,0.41748046875,0.5187987685203552,-2.929687261581421,-0.1831054538488388,66.66667175292969,422.0,1.0,Rest
180072.640625,206951.59375,617947.0,590867.3125,157235.59375,77328.90625,-50069.7890625,38337.265625,0.00048828125,0.906494140625,0.419677734375,0.4577636420726776,-2.929687261581421,-0.03051757626235485,66.66667175292969,423.0,1.0,Rest
180238.21875,207250.5625,617879.375,590844.875,157682.796875,77910.8515625,-49225.515625,39241.3515625,-0.001708984375,0.904052734375,0.418701171875,0.3051757514476776,-2.929687261581421,0.0,66.66667175292969,424.0,1.0,Rest
180340.859375,207379.9375,617721.0,590731.25,158011.109375,78388.8203125,-48459.65625,40010.609375,0.000732421875,0.901611328125,0.41943359375,0.3662109076976776,-2.868652105331421,-0.03051757626235485,66.66667175292969,425.0,1.0,Rest
180287.21875,207190.046875,617428.5,590461.6875,158114.28125,78690.125,-47853.4765625,40470.4296875,-0.000732421875,0.903564453125,0.417724609375,0.4882812201976776,-2.807616949081421,-0.1525878757238388,66.66667175292969,426.0,1.0,Rest
180167.578125,206970.453125,617128.625,590181.8125,158180.53125,78950.8359375,-47290.21484375,40843.1640625,-0.000244140625,0.903564453125,0.419921875,0.3662109076976776,-2.777099370956421,-0.0610351525247097,66.66667175292969,427.0,1.0,Rest
180212.015625,207049.140625,616988.3125,590073.375,158479.421875,79390.09375,-46564.05078125,41503.078125,0.000732421875,0.903564453125,0.419189453125,0.2746581733226776,-2.655029058456421,-0.0610351525247097,66.66667175292969,428.0,1.0,Rest
180405.40625,207325.046875,616949.6875,590077.5,158964.625,79968.1953125,-45710.75,42405.73046875,0.0009765625,0.90380859375,0.415771484375,0.2746581733226776,-2.593993902206421,0.1220703050494194,66.66667175292969,429.0,1.0,Rest
180521.1875,207422.59375,616819.5625,589989.6875,159336.46875,80456.09375,-44941.671875,43174.72265625,0.00244140625,0.902099609375,0.413818359375,0.1220703050494194,-2.593993902206421,0.2441406100988388,66.66667175292969,430.0,1.0,Rest
180460.484375,207236.171875,616530.5,589731.0625,159433.125,80757.390625,-44340.41015625,43622.6484375,0.004638671875,0.901611328125,0.4130859375,0.2746581733226776,-2.624511480331421,0.2136230319738388,66.66667175292969,431.0,1.0,Rest
180334.328125,207032.953125,616221.8125,589452.25,159452.609375,81016.765625,-43792.5234375,43974.9140625,0.00390625,0.904052734375,0.4140625,0.3356933295726776,-2.624511480331421,0.1831054538488388,66.66667175292969,432.0,1.0,Rest
180334.421875,207094.203125,616049.5,589321.1875,159700.8125,81443.234375,-43117.41015625,44587.62109375,0.00146484375,0.90673828125,0.414794921875,0.3662109076976776,-2.532958745956421,0.2136230319738388,66.66667175292969,433.0,1.0,Rest
180480.515625,207346.59375,615987.8125,589304.375,160158.03125,82006.765625,-42308.1875,45455.3125,0.003173828125,0.908203125,0.414794921875,0.2441406100988388,-2.471923589706421,0.2441406100988388,66.66667175292969,434.0,1.0,Rest
180584.765625,207446.375,615853.875,589214.75,160512.890625,82493.3203125,-41552.4296875,46213.39453125,0.002685546875,0.908935546875,0.41650390625,0.0,-2.319335699081421,0.2136230319738388,66.66667175292969,435.0,1.0,Rest
180519.140625,207260.765625,615575.8125,588967.9375,160597.203125,82793.0078125,-40965.20703125,46650.59765625,0.0029296875,0.91162109375,0.414306640625,-0.1220703050494194,-2.227782964706421,0.1831054538488388,66.66667175292969,436.0,1.0,Rest
180395.21875,207064.15625,615284.8125,588697.3125,160602.75,83053.9921875,-40426.70703125,46998.8359375,0.003173828125,0.91259765625,0.416259765625,-0.3051757514476776,-2.258300542831421,0.2136230319738388,66.66667175292969,437.0,1.0,Rest
180420.515625,207150.875,615138.75,588583.9375,160831.890625,83475.2734375,-39743.28125,47616.28125,0.002197265625,0.90869140625,0.417724609375,-0.4882812201976776,-2.166747808456421,0.2441406100988388,66.66667175292969,438.0,1.0,Rest
180593.96875,207415.171875,615089.9375,588576.4375,161282.234375,84023.25,-38926.81640625,48484.15625,0.0029296875,0.90673828125,0.413818359375,-0.6408690810203552,-2.166747808456421,0.1831054538488388,66.66667175292969,439.0,1.0,Rest
180716.71875,207511.90625,614961.1875,588481.5,161651.84375,84480.65625,-38176.87109375,49231.41796875,0.00244140625,0.906982421875,0.4130859375,-0.7629393935203552,-2.105712652206421,0.3356933295726776,66.66667175292969,440.0,1.0,Rest
180677.65625,207331.75,614692.9375,588231.0,161772.8125,84758.3515625,-37585.7109375,49668.6171875,0.00439453125,0.90673828125,0.412353515625,-0.8239745497703552,-2.044677495956421,0.3356933295726776,66.66667175292969,441.0,1.0,Rest
180589.3125,207149.546875,614409.3125,587960.9375,161824.21875,85011.0234375,-37032.99609375,50018.9140625,0.00634765625,0.906982421875,0.41455078125,-1.0375975370407104,-2.105712652206421,0.3967284858226776,66.66667175292969,442.0,1.0,Rest
180615.875,207232.15625,614253.875,587833.3125,162068.84375,85415.3203125,-36353.68359375,50614.9921875,0.007568359375,0.905517578125,0.414306640625,-1.1596678495407104,-2.075195074081421,0.4577636420726776,66.66667175292969,443.0,1.0,Rest
180784.40625,207505.921875,614197.5625,587824.25,162508.015625,85948.09375,-35553.40234375,51459.3515625,0.009765625,0.90625,0.412109375,-1.1901854276657104,-1.9226073026657104,0.3967284858226776,66.66667175292969,444.0,1.0,Rest
180903.140625,207615.703125,614065.5,587740.25,162858.9375,86402.1953125,-34814.18359375,52196.33203125,0.008056640625,0.90380859375,0.412109375,-1.2207030057907104,-1.7700194120407104,0.4577636420726776,66.66667175292969,445.0,1.0,Rest
180852.359375,207446.453125,613794.125,587497.75,162958.171875,86681.5,-34235.6328125,52622.53515625,0.005859375,0.900146484375,0.409912109375,-1.3122557401657104,-1.5563963651657104,0.3967284858226776,66.66667175292969,446.0,1.0,Rest
180733.984375,207259.15625,613509.5625,587242.6875,162982.40625,86931.484375,-33701.06640625,52958.796875,0.005126953125,0.900146484375,0.4111328125,-1.2512205839157104,-1.5258787870407104,0.2746581733226776,66.66667175292969,447.0,1.0,Rest
180735.5,207331.03125,613349.9375,587126.625,163195.375,87327.734375,-33049.46875,53535.6484375,0.005859375,0.899658203125,0.40966796875,-1.2207030057907104,-1.4953612089157104,0.3051757514476776,66.66667175292969,448.0,1.0,Rest
180878.640625,207587.453125,613282.8125,587100.0625,163605.296875,87853.625,-32279.138671875,54357.30078125,0.006103515625,0.898681640625,0.4091796875,-1.2207030057907104,-1.4038084745407104,0.2441406100988388,66.66667175292969,449.0,1.0,Rest
180979.140625,207686.875,613151.3125,587010.1875,163942.1875,88307.6328125,-31560.486328125,55082.2109375,0.00634765625,0.8984375,0.410400390625,-1.2207030057907104,-1.3122557401657104,0.1831054538488388,66.66667175292969,450.0,1.0,Rest
180918.25,207506.90625,612879.875,586765.625,164028.46875,88577.375,-31004.642578125,55490.98046875,0.005615234375,0.89990234375,0.410888671875,-1.3122557401657104,-1.1901854276657104,0.1525878757238388,66.66667175292969,451.0,1.0,Rest
180801.65625,207305.015625,612591.875,586496.5625,164038.921875,88809.5625,-30492.609375,55804.44140625,0.007568359375,0.899169921875,0.412109375,-1.2207030057907104,-1.0681151151657104,0.0915527269244194,66.66667175292969,452.0,1.0,Rest
180824.1875,207379.046875,612450.375,586385.0,164269.953125,89211.2734375,-29831.890625,56384.9609375,0.00634765625,0.899658203125,0.414306640625,-1.2817381620407104,-0.9155272841453552,0.1525878757238388,66.66667175292969,453.0,1.0,Rest
180986.015625,207642.703125,612405.3125,586381.125,164701.078125,89734.8359375,-29050.83203125,57207.59375,0.005859375,0.899169921875,0.411865234375,-1.3732908964157104,-0.7019042372703552,0.2746581733226776,66.66667175292969,454.0,1.0,Rest
181106.453125,207750.890625,612278.875,586285.75,165054.59375,90179.3671875,-28329.138671875,57923.7421875,0.0087890625,0.898681640625,0.413330078125,-1.3122557401657104,-0.6408690810203552,0.1831054538488388,66.66667175292969,455.0,1.0,Rest
181073.8125,207586.03125,612013.875,586045.6875,165161.34375,90444.1953125,-27764.623046875,58329.7421875,0.007080078125,0.9013671875,0.41650390625,-1.4038084745407104,-0.5187987685203552,0.0915527269244194,66.66667175292969,456.0,1.0,Rest
180970.1875,207388.703125,611723.3125,585784.8125,165175.109375,90659.0390625,-27255.00390625,58633.546875,0.006591796875,0.903076171875,0.4150390625,-1.3732908964157104,-0.3356933295726776,0.2136230319738388,66.66667175292969,457.0,1.0,Rest
180983.0625,207455.3125,611557.8125,585655.875,165379.3125,91024.4453125,-26624.68359375,59178.03515625,0.00439453125,0.90380859375,0.417236328125,-1.5258787870407104,-0.3356933295726776,0.2136230319738388,66.66667175292969,458.0,1.0,Rest
181144.796875,207728.1875,611508.8125,585652.125,165808.640625,91544.5234375,-25852.654296875,59993.15625,0.00341796875,0.906005859375,0.4150390625,-1.4343260526657104,-0.3051757514476776,0.1220703050494194,66.66667175292969,459.0,1.0,Rest
181268.984375,207857.734375,611394.5625,585582.0,166165.921875,91996.390625,-25131.498046875,60717.98046875,0.002197265625,0.91064453125,0.416015625,-1.3732908964157104,-0.3051757514476776,0.0610351525247097,66.66667175292969,460.0,1.0,Rest
181226.703125,207701.625,611134.25,585345.125,166259.25,92259.6875,-24582.359375,61118.703125,0.0009765625,0.91357421875,0.419921875,-1.6174315214157104,-0.3356933295726776,0.0915527269244194,66.66667175292969,461.0,1.0,Rest
181103.140625,207503.140625,610844.9375,585074.1875,166255.328125,92470.3359375,-24091.873046875,61408.6484375,0.00048828125,0.916259765625,0.418701171875,-1.7700194120407104,-0.2441406100988388,0.0,66.66667175292969,462.0,1.0,Rest
181103.40625,207571.359375,610689.125,584951.875,166453.1875,92839.5859375,-23468.349609375,61951.171875,0.00146484375,0.917724609375,0.41943359375,-1.8310545682907104,-0.1831054538488388,0.0610351525247097,66.66667175292969,463.0,1.0,Rest
181252.359375,207840.390625,610641.625,584952.0625,166858.734375,93345.71875,-22718.76171875,62745.73046875,0.0048828125,0.919189453125,0.4208984375,-2.075195074081421,-0.2136230319738388,0.1525878757238388,66.66667175292969,464.0,1.0,Rest
181370.46875,207963.953125,610534.6875,584885.0,167201.78125,93786.40625,-22015.486328125,63451.59765625,0.0048828125,0.922607421875,0.420166015625,-2.197265386581421,-0.1831054538488388,0.0610351525247097,66.66667175292969,465.0,1.0,Rest
181315.296875,207785.84375,610272.6875,584644.6875,167279.390625,94028.515625,-21484.85546875,63830.05859375,0.004638671875,0.921630859375,0.419921875,-2.410888433456421,-0.1220703050494194,0.1525878757238388,66.66667175292969,466.0,1.0,Rest
181190.671875,207577.0,609991.1875,584372.875,167263.46875,94221.7265625,-21006.439453125,64100.42578125,0.00537109375,0.9208984375,0.42041015625,-2.563476324081421,-0.0915527269244194,0.1831054538488388,66.66667175292969,467.0,1.0,Rest
181205.515625,207635.734375,609859.5,584258.625,167463.125,94587.7578125,-20376.923828125,64635.703125,0.004150390625,0.9189453125,0.422607421875,-2.655029058456421,-0.0915527269244194,0.2441406100988388,66.66667175292969,468.0,1.0,Rest
181374.046875,207898.40625,609836.0,584257.125,167879.84375,95093.984375,-19618.931640625,65430.53125,0.001953125,0.91552734375,0.423583984375,-2.685546636581421,-0.1525878757238388,0.3356933295726776,66.66667175292969,469.0,1.0,Rest
181501.8125,208020.453125,609742.125,584187.125,168228.984375,95528.6796875,-18914.673828125,66133.984375,0.00146484375,0.91259765625,0.4248046875,-2.838134527206421,-0.1525878757238388,0.3967284858226776,66.66667175292969,470.0,1.0,Rest
181460.234375,207849.59375,609494.9375,583956.875,168316.78125,95774.640625,-18381.091796875,66515.0390625,0.002685546875,0.909912109375,0.424560546875,-2.685546636581421,-0.1525878757238388,0.4577636420726776,66.66667175292969,471.0,1.0,Rest
181336.046875,207634.9375,609215.0,583695.0625,168300.15625,95965.875,-17913.046875,66773.515625,0.000244140625,0.90673828125,0.42138671875,-2.593993902206421,-0.2441406100988388,0.4272460639476776,66.66667175292969,472.0,1.0,Rest
181337.921875,207688.21875,609061.1875,583570.75,168484.0625,96318.140625,-17313.3046875,67278.578125,0.00048828125,0.90625,0.421630859375,-2.563476324081421,-0.2746581733226776,0.4577636420726776,66.66667175292969,473.0,1.0,Rest
181483.921875,207946.15625,609014.375,583564.8125,168882.09375,96813.28125,-16579.451171875,68046.8515625,-0.000732421875,0.904541015625,0.42431640625,-2.532958745956421,-0.1831054538488388,0.5187987685203552,66.66667175292969,474.0,1.0,Rest
181600.953125,208070.96875,608907.125,583499.8125,169217.734375,97243.953125,-15890.03515625,68736.0859375,0.0,0.90283203125,0.423583984375,-2.410888433456421,-0.2746581733226776,0.6713866591453552,66.66667175292969,475.0,1.0,Rest
181560.375,207919.515625,608656.4375,583271.3125,169299.1875,97487.765625,-15361.9970703125,69111.421875,-0.000732421875,0.902587890625,0.425537109375,-2.197265386581421,-0.4272460639476776,0.6408690810203552,66.66667175292969,476.0,1.0,Rest
181441.8125,207721.5625,608374.625,583002.75,169282.203125,97679.2734375,-14893.7724609375,69367.03125,0.00048828125,0.90380859375,0.424560546875,-2.044677495956421,-0.5187987685203552,0.6103515028953552,66.66667175292969,477.0,1.0,Rest
181433.046875,207770.828125,608208.4375,582874.0625,169453.234375,98015.625,-14305.83203125,69856.5390625,-0.00146484375,0.90380859375,0.42626953125,-2.044677495956421,-0.6103515028953552,0.6408690810203552,66.66667175292969,478.0,1.0,Rest
181576.90625,208029.125,608153.625,582874.625,169844.5625,98497.703125,-13580.65234375,70615.3359375,-0.000244140625,0.903564453125,0.42529296875,-1.8615721464157104,-0.6713866591453552,0.7324218153953552,66.66667175292969,479.0,1.0,Rest
181699.21875,208159.125,608047.6875,582813.625,170178.59375,98918.1875,-12897.6728515625,71297.6015625,-0.003173828125,0.901611328125,0.426513671875,-1.8310545682907104,-0.6713866591453552,0.7019042372703552,66.66667175292969,480.0,1.0,Rest
181659.78125,208002.03125,607798.5625,582588.5625,170260.671875,99156.2734375,-12378.5751953125,71666.2265625,-0.0029296875,0.902099609375,0.4267578125,-1.7395018339157104,-0.9155272841453552,0.7324218153953552,66.66667175292969,481.0,1.0,Rest
181532.296875,207785.9375,607516.0,582322.875,170235.8125,99333.8359375,-11929.6630859375,71903.7734375,-0.00244140625,0.90087890625,0.4267578125,-1.3732908964157104,-0.9765624403953552,0.7934569716453552,66.66667175292969,482.0,1.0,Rest
181522.734375,207827.78125,607360.9375,582194.125,170397.546875,99655.703125,-11362.912109375,72374.4140625,-0.003173828125,0.900390625,0.424560546875,-1.3427733182907104,-1.1291502714157104,0.7629393935203552,66.66667175292969,483.0,1.0,Rest
181661.046875,208071.0625,607309.0625,582190.8125,170777.4375,100125.359375,-10656.955078125,73114.2578125,-0.002685546875,0.8994140625,0.42578125,-1.1291502714157104,-1.3122557401657104,0.7934569716453552,66.66667175292969,484.0,1.0,Rest
181789.703125,208205.34375,607212.375,582141.4375,171116.65625,100549.234375,-9974.33203125,73794.6484375,-0.001220703125,0.897705078125,0.42578125,-1.0070799589157104,-1.3732908964157104,0.7324218153953552,66.66667175292969,485.0,1.0,Rest
181756.96875,208049.25,606978.5625,581931.5625,171205.875,100789.0234375,-9451.390625,74163.8046875,0.00244140625,0.8984375,0.42578125,-0.7934569716453552,-1.5258787870407104,0.5493163466453552,66.66667175292969,486.0,1.0,Rest
181625.71875,207821.703125,606695.5625,581664.8125,171167.515625,100948.2578125,-9015.0849609375,74386.875,0.00244140625,0.89892578125,0.42333984375,-0.5187987685203552,-1.5258787870407104,0.6103515028953552,66.66667175292969,487.0,1.0,Rest
181613.65625,207861.21875,606541.6875,581539.75,171322.203125,101259.9375,-8451.6416015625,74849.5546875,0.002685546875,0.897216796875,0.42431640625,-0.3051757514476776,-1.6174315214157104,0.6408690810203552,66.66667175292969,488.0,1.0,Rest
181760.015625,208122.109375,606505.75,581546.4375,171706.203125,101728.515625,-7741.39306640625,75591.1875,0.000732421875,0.897216796875,0.426025390625,0.0,-1.6784666776657104,0.5493163466453552,66.66667175292969,489.0,1.0,Rest
181891.4375,208269.0,606416.8125,581492.625,172043.625,102145.6015625,-7066.45947265625,76266.2109375,0.00341796875,0.899169921875,0.424560546875,0.1525878757238388,-1.7089842557907104,0.5798339247703552,66.66667175292969,490.0,1.0,Rest
181854.515625,208121.21875,606174.9375,581274.6875,172119.4375,102368.1328125,-6567.74755859375,76615.34375,0.0048828125,0.89990234375,0.426513671875,0.3356933295726776,-1.6784666776657104,0.4882812201976776,66.66667175292969,491.0,1.0,Rest
181732.203125,207915.40625,605897.0625,581013.9375,172087.34375,102534.25,-6134.57080078125,76834.0390625,0.004150390625,0.90478515625,0.426513671875,0.5798339247703552,-1.8310545682907104,0.3967284858226776,66.66667175292969,492.0,1.0,Rest
181725.40625,207966.09375,605744.4375,580894.125,172242.8125,102847.53125,-5575.06201171875,77288.9375,0.00439453125,0.905517578125,0.42578125,0.7934569716453552,-1.8615721464157104,0.5187987685203552,66.66667175292969,493.0,1.0,Rest
181877.859375,208237.984375,605710.5625,580909.4375,172628.25,103316.3828125,-4872.77001953125,78021.2734375,0.005126953125,0.9072265625,0.4228515625,0.8850097060203552,-1.8310545682907104,0.5493163466453552,66.66667175292969,494.0,1.0,Rest
182004.625,208378.078125,605622.25,580860.875,172964.609375,103730.7890625,-4209.0126953125,78686.8203125,0.00537109375,0.911865234375,0.42529296875,0.8544921278953552,-1.7089842557907104,0.4272460639476776,66.66667175292969,495.0,1.0,Rest
181967.265625,208227.875,605386.5,580650.625,173044.078125,103956.5390625,-3712.71435546875,79035.4140625,0.00732421875,0.914794921875,0.427734375,0.7934569716453552,-1.6174315214157104,0.3662109076976776,66.66667175292969,496.0,1.0,Rest
181846.296875,208015.0,605107.6875,580387.5625,173006.171875,104116.578125,-3288.92529296875,79243.4609375,0.0068359375,0.914794921875,0.428466796875,0.7324218153953552,-1.6479490995407104,0.3051757514476776,66.66667175292969,497.0,1.0,Rest
181833.234375,208050.765625,604949.375,580255.5,173150.390625,104422.2578125,-2742.291015625,79677.359375,0.005126953125,0.916015625,0.426513671875,0.6713866591453552,-1.7700194120407104,0.4577636420726776,66.66667175292969,498.0,1.0,Rest
181972.09375,208301.8125,604906.4375,580254.8125,173521.609375,104876.0859375,-2052.60546875,80391.2734375,0.0068359375,0.91455078125,0.427978515625,0.4272460639476776,-1.6479490995407104,0.3967284858226776,66.66667175292969,499.0,1.0,Rest
182097.796875,208439.6875,604818.3125,580204.0,173850.890625,105280.8359375,-1394.83837890625,81047.25,0.006103515625,0.9150390625,0.4228515625,0.3051757514476776,-1.6174315214157104,0.3356933295726776,66.66667175292969,500.0,1.0,Rest
182068.640625,208295.375,604585.1875,580001.3125,173928.859375,105500.6875,-901.9376220703125,81388.25,0.0068359375,0.91455078125,0.425537109375,0.1220703050494194,-1.6784666776657104,0.3051757514476776,66.66667175292969,501.0,1.0,Rest
181944.1875,208077.046875,604309.75,579749.0,173886.203125,105651.9609375,-476.18157958984375,81593.4375,0.006103515625,0.91162109375,0.42431640625,-0.03051757626235485,-1.6479490995407104,0.0915527269244194,66.66667175292969,502.0,1.0,Rest
181927.03125,208104.3125,604150.25,579622.4375,174020.859375,105944.7734375,58.02513122558594,82014.1875,0.00537109375,0.907470703125,0.4228515625,-0.1525878757238388,-1.5869139432907104,0.0915527269244194,66.66667175292969,503.0,1.0,Rest
182075.078125,208365.921875,604113.6875,579633.625,174393.59375,106398.421875,738.7698974609375,82720.4140625,0.00537109375,0.904541015625,0.421630859375,-0.03051757626235485,-1.4953612089157104,0.0610351525247097,66.66667175292969,504.0,1.0,Rest
182199.1875,208500.75,604025.0,579597.1875,174721.0,106796.90625,1391.977294921875,83372.28125,0.006103515625,0.902099609375,0.421630859375,-0.0610351525247097,-1.5869139432907104,0.0610351525247097,66.66667175292969,505.0,1.0,Rest
182156.984375,208342.5,603786.4375,579395.4375,174789.046875,107002.09375,1871.645751953125,83703.171875,0.004638671875,0.901611328125,0.421630859375,-0.0610351525247097,-1.5869139432907104,-0.0610351525247097,66.66667175292969,506.0,1.0,Rest
182036.015625,208130.15625,603511.4375,579142.9375,174744.25,107146.3125,2278.89453125,83892.8046875,0.004638671875,0.90087890625,0.417724609375,0.0610351525247097,-1.5258787870407104,-0.03051757626235485,66.66667175292969,507.0,1.0,Rest
